File: Akinwande-lab-measurements/raman/data/Raman 25-12-11 finished-wafer-1/d1_1.txt
2999.69	224.509
2993.45	240.382
2987.2	228.168
2980.96	183.979
2974.7	255.752
2968.44	217.603
2962.18	205.45
2955.91	231.183
2949.63	256.872
2943.35	218.851
2937.07	248.482
2930.77	228.408
2924.48	208.368
2918.18	253.794
2911.87	259.52
2905.56	184.082
2899.24	243.254
2892.91	219.334
2886.58	213.224
2880.25	211.068
2873.91	232.568
2867.56	218.584
2861.21	194.786
2854.86	210.346
2848.49	219.986
2842.13	239.422
2835.75	219.609
2829.38	244.888
2822.99	225.104
2816.6	220.999
2810.21	212.993
2803.81	208.905
2797.4	200.922
2790.99	229.985
2784.57	212.261
2778.15	245.154
2771.72	233.279
2765.29	221.424
2758.85	225.115
2752.41	205.531
2745.96	234.413
2739.5	220.661
2733.04	243.678
2726.57	214.484
2720.1	260.633
2713.62	271.982
2707.14	248.619
2700.65	311.95
2694.16	330.92
2687.66	334.478
2681.15	280.411
2674.64	272.492
2668.12	247.332
2661.6	231.792
2655.07	229.677
2648.53	233.303
2641.99	227.369
2635.45	242.444
2628.9	207.901
2622.34	228.683
2615.78	215.156
2609.21	216.872
2602.63	212.882
2596.06	193.706
2589.47	214.41
2582.88	225.598
2576.28	217.825
2569.68	198.711
2563.07	213.664
2556.46	205.921
2549.84	215.18
2543.21	203.677
2536.58	211.036
2529.94	188.261
2523.3	201.264
2516.65	208.605
2509.99	193.402
2503.33	206.365
2496.67	189.315
2489.99	202.259
2483.32	192.727
2476.63	201.906
2469.94	192.39
2463.25	173.559
2456.55	210.699
2449.84	195.611
2443.12	212.192
2436.41	204.567
2429.68	178.375
2422.95	181.931
2416.21	176.207
2409.47	201.997
2402.72	188.859
2395.97	199.793
2389.21	197.769
2382.44	199.442
2375.67	201.112
2368.89	180.657
2362.1	184.182
2355.31	185.86
2348.52	174.665
2341.72	169
2334.91	187.205
2328.09	194.375
2321.27	175.882
2314.45	172.066
2307.61	186.546
2300.77	197.345
2293.93	197.171
2287.08	158.692
2280.22	184.066
2273.36	165.695
2266.49	211.029
2259.62	199.936
2252.74	194.312
2245.85	185.068
2238.96	195.781
2232.06	211.908
2225.15	197.244
2218.24	200.685
2211.32	186.056
2204.4	211.158
2197.47	144.253
2190.53	172.951
2183.59	212.396
2176.64	169.047
2169.69	206.629
2162.73	175.928
2155.76	188.326
2148.79	177.407
2141.81	159.345
2134.82	187.824
2127.83	178.721
2120.83	174.991
2113.83	169.483
2106.82	174.679
2099.8	174.524
2092.78	169.03
2085.75	152.88
2078.72	147.416
2071.67	173.902
2064.63	152.471
2057.57	178.905
2050.51	169.897
2043.44	185.658
2036.37	146.627
2029.29	192.387
2022.21	153.419
2015.11	158.567
2008.02	168.987
2000.91	160.042
1993.8	165.17
1986.68	172.044
1979.56	166.628
1972.43	164.726
1965.29	154.073
1958.15	162.682
1951	148.554
1943.84	150.167
1936.68	158.754
1929.51	153.383
1922.33	153.245
1915.15	146.148
1907.96	154.708
1900.77	158.042
1893.57	126.667
1886.36	143.889
1879.14	159.347
1871.92	154.012
1864.7	162.518
1857.46	155.462
1850.22	157.047
1842.98	148.284
1835.72	153.319
1828.46	141.132
1821.19	113.492
1813.92	146.031
1806.64	140.75
1799.36	140.622
1792.06	143.922
1784.76	118.115
1777.46	157.343
1770.14	126.444
1762.82	153.644
1755.5	141.566
1748.17	115.876
1740.83	146.416
1733.48	127.573
1726.13	139.353
1718.77	156.205
1711.4	123.833
1704.03	130.5
1696.65	145.62
1689.26	118.42
1681.87	131.834
1674.47	136.78
1667.06	153.526
1659.65	143.273
1652.23	153.247
1644.8	143.012
1637.37	152.967
1629.93	142.751
1622.48	105.707
1615.03	144.167
1607.57	132.312
1600.1	125.498
1592.63	163.834
1585.15	150.322
1577.66	146.847
1570.16	121.705
1562.66	124.925
1555.15	116.49
1547.64	131.347
1540.11	111.293
1532.59	122.808
1525.05	137.618
1517.51	122.583
1509.96	125.78
1502.4	132.279
1494.83	135.461
1487.26	113.881
1479.69	108.83
1472.1	136.736
1464.51	118.505
1456.91	121.685
1449.3	101.858
1441.69	103.406
1434.07	103.311
1426.45	113.045
1418.81	101.483
1411.17	106.296
1403.52	106.198
1395.87	104.467
1388.21	119.048
1380.54	109.162
1372.86	97.6671
1365.18	141.486
1357.49	110.485
1349.79	134.732
1342.08	110.281
1334.37	119.9
1326.65	111.695
1318.93	122.913
1311.19	113.104
1303.45	103.314
1295.7	96.7668
1287.95	119.235
1280.19	104.636
1272.42	112.581
1264.64	110.869
1256.86	102.74
1249.07	107.456
1241.27	99.3441
1233.46	91.2475
1225.65	86.3646
1217.83	107.056
1210	102.167
1202.17	90.9082
1194.33	116.318
1186.48	73.2278
1178.62	98.6063
1170.76	98.5143
1162.88	84.1352
1155.01	99.9164
1147.12	80.8091
1139.23	102.896
1131.33	66.4244
1123.42	88.483
1115.5	83.6645
1107.58	80.432
1099.65	94.5373
1091.71	89.7263
1083.77	88.0696
1075.81	86.4159
1067.85	80.0559
1059.89	79.9808
1051.91	81.4726
1043.93	81.3961
1035.94	76.6281
1027.94	81.2432
1019.93	99.8977
1011.92	48.3425
1003.9	102.826
999.086	79.4115