File: Akinwande-lab-measurements/raman/data/Raman 25-12-11 finished-wafer-1/d1_2.txt
2999.69	1429.24
2993.45	1472.34
2987.2	1403.03
2980.96	1347.84
2974.7	1458.59
2968.44	1437.38
2962.18	1362.35
2955.91	1413
2949.63	1413.79
2943.35	1408.6
2937.07	1371.62
2930.77	1422.09
2924.48	1369.28
2918.18	1372.07
2911.87	1380.8
2905.56	1369.73
2899.24	1386.35
2892.91	1359.48
2886.58	1340.55
2880.25	1376.88
2873.91	1361.9
2867.56	1406.03
2861.21	1402.85
2854.86	1305.32
2848.49	1388.66
2842.13	1281.5
2835.75	1421.57
2829.38	1330.23
2822.99	1395.64
2816.6	1347.51
2810.21	1369.8
2803.81	1315.9
2797.4	1357.69
2790.99	1331.18
2784.57	1293.04
2778.15	1365.86
2771.72	1337.47
2765.29	1326.6
2758.85	1426.37
2752.41	1365.03
2745.96	1356.11
2739.5	1397.52
2733.04	1361.5
2726.57	1352.6
2720.1	1397.77
2713.62	1493.01
2707.14	1645.9
2700.65	1731.13
2694.16	1918.18
2687.66	1806.95
2681.15	1749.69
2674.64	1548.6
2668.12	1447.56
2661.6	1444.39
2655.07	1343.61
2648.53	1342.45
2641.99	1285.88
2635.45	1248.49
2628.9	1205.44
2622.34	1280.63
2615.78	1357.58
2609.21	1221.33
2602.63	1260.19
2596.06	1257.19
2589.47	1225.74
2582.88	1291.03
2576.28	1263.38
2569.68	1235.79
2563.07	1227.15
2556.46	1275.2
2549.84	1228.79
2543.21	1269.21
2536.58	1164.47
2529.94	1219.93
2523.3	1100.37
2516.65	1214.04
2509.99	1201.72
2503.33	1196.92
2496.67	1197.75
2489.99	1217.3
2483.32	1246.17
2476.63	1250.69
2469.94	1184.22
2463.25	1132.8
2456.55	1165.37
2449.84	1181.12
2443.12	1148.44
2436.41	1164.17
2429.68	1144.57
2422.95	1175.13
2416.21	1120.31
2409.47	1208.28
2402.72	1190.55
2395.97	1111.81
2389.21	1182.92
2382.44	1187.42
2375.67	1180.84
2368.89	1107.91
2362.1	1130.88
2355.31	1122.52
2348.52	1136.24
2341.72	1092.99
2334.91	1093.86
2328.09	1059.89
2321.27	1117.59
2314.45	1114.77
2307.61	1084.53
2300.77	1120.11
2293.93	1060.7
2287.08	1072.54
2280.22	1091.64
2273.36	1072.46
2266.49	1071.52
2259.62	983.324
2252.74	1060.54
2245.85	1101.33
2238.96	1067.73
2232.06	1030.56
2225.15	1080.32
2218.24	1073.94
2211.32	1094.66
2204.4	1017.89
2197.47	1042.23
2190.53	1043.11
2183.59	1069.18
2176.64	1052.05
2169.69	1029.55
2162.73	1048.38
2155.76	1097.67
2148.79	1010.68
2141.81	1040.22
2134.82	1066.13
2127.83	1029.43
2120.83	951.736
2113.83	1013.33
2106.82	1008.86
2099.8	977.688
2092.78	1037.31
2085.75	1011.5
2078.72	896.927
2071.67	1022.12
2064.63	1024.75
2057.57	956.524
2050.51	960.978
2043.44	935.365
2036.37	930.996
2029.29	963.698
2022.21	931.094
2015.11	974.308
2008.02	881.901
2000.91	932.113
1993.8	917.221
1986.68	919.91
1979.56	919.086
1972.43	932.281
1965.29	903.431
1958.15	883.378
1951	901.81
1943.84	911.476
1936.68	933.337
1929.51	918.554
1922.33	893.348
1915.15	878.626
1907.96	872.62
1900.77	830.154
1893.57	909.224
1886.36	887.601
1879.14	891.998
1871.92	934.456
1864.7	848.896
1857.46	936.226
1850.22	790.414
1842.98	882.809
1835.72	861.34
1828.46	812.371
1821.19	849.467
1813.92	891.649
1806.64	810.17
1799.36	862.599
1792.06	829.264
1784.76	826.802
1777.46	808.951
1770.14	840.683
1762.82	827.971
1755.5	844.277
1748.17	788.981
1740.83	769.537
1733.48	799.457
1726.13	803.829
1718.77	777.631
1711.4	753.175
1704.03	786.387
1696.65	811.071
1689.26	798.491
1681.87	745.369
1674.47	748.068
1667.06	808.122
1659.65	751.762
1652.23	749.393
1644.8	800.868
1637.37	806.861
1629.93	796.049
1622.48	755.053
1615.03	804.654
1607.57	829.042
1600.1	801.512
1592.63	887.711
1585.15	888.57
1577.66	817.671
1570.16	813.589
1562.66	751.214
1555.15	722.236
1547.64	809.693
1540.11	730.88
1532.59	723.572
1525.05	726.225
1517.51	690.771
1509.96	718.273
1502.4	682.89
1494.83	652.527
1487.26	679.986
1479.69	713.988
1472.1	680.384
1464.51	696.217
1456.91	679.132
1449.3	647.293
1441.69	618.794
1434.07	718.255
1426.45	627.484
1418.81	656.369
1411.17	649.222
1403.52	702.539
1395.87	659.451
1388.21	600.133
1380.54	661.492
1372.86	616.931
1365.18	639.129
1357.49	719.777
1349.79	650.933
1342.08	642.222
1334.37	617.324
1326.65	655.603
1318.93	562.811
1311.19	599.452
1303.45	587.597
1295.7	570.924
1287.95	544.614
1280.19	561.816
1272.42	599.893
1264.64	607.37
1256.86	577.91
1249.07	558.128
1241.27	480.697
1233.46	501.061
1225.65	601.353
1217.83	496.933
1210	541.168
1202.17	547.044
1194.33	474.831
1186.48	460.061
1178.62	483.489
1170.76	490.982
1162.88	495.286
1155.01	543.989
1147.12	560.911
1139.23	495.483
1131.33	438.085
1123.42	455.055
1115.5	449.894
1107.58	465.244
1099.65	401.784
1091.71	454.928
1083.77	443.493
1075.81	443.078
1067.85	470.917
1059.89	486.158
1051.91	432.431
1043.93	422.634
1035.94	441.003
1027.94	490.584
1019.93	429.248
1011.92	511.494
1003.9	464.274
999.086	506.054