File: Akinwande-lab-measurements/raman/data/Raman 25-12-11 finished-wafer-1/d2_1.txt
2999.69	1066.42
2993.45	1099.75
2987.2	1104.81
2980.96	1087.87
2974.7	1054.98
2968.44	1133.93
2962.18	1069.14
2955.91	1116.05
2949.63	1063.33
2943.35	1040.54
2937.07	1043.62
2930.77	1122.18
2924.48	1055.73
2918.18	1023.11
2911.87	1097.51
2905.56	1108.45
2899.24	1121.34
2892.91	1069.01
2886.58	1131.27
2880.25	1082.96
2873.91	1056.41
2867.56	1059.44
2861.21	1011.31
2854.86	1093.01
2848.49	1037.08
2842.13	1075.44
2835.75	1056.87
2829.38	1034.41
2822.99	1051.14
2816.6	1077.61
2810.21	1043.47
2803.81	1048.43
2797.4	1029.97
2790.99	1046.62
2784.57	1028.2
2778.15	1085.68
2771.72	1032.26
2765.29	1081.87
2758.85	1069.29
2752.41	1014.08
2745.96	1079.07
2739.5	1116.86
2733.04	1112.02
2726.57	1082.08
2720.1	1166.09
2713.62	1197.88
2707.14	1339.46
2700.65	1503.91
2694.16	1421.8
2687.66	1439.79
2681.15	1354.04
2674.64	1228.14
2668.12	1117.79
2661.6	1135.97
2655.07	1083.31
2648.53	1046.04
2641.99	1058.51
2635.45	1017.5
2628.9	909.805
2622.34	962.375
2615.78	974.868
2609.21	1000.65
2602.63	994.083
2596.06	955.237
2589.47	980.971
2582.88	1044.57
2576.28	984.948
2569.68	906.499
2563.07	975.67
2556.46	991.823
2549.84	1057.02
2543.21	965.579
2536.58	915.747
2529.94	988.37
2523.3	998.794
2516.65	920.87
2509.99	953.864
2503.33	981.172
2496.67	929.706
2489.99	990.695
2483.32	971.118
2476.63	983.355
2469.94	920.856
2463.25	880.859
2456.55	958.401
2449.84	924.029
2443.12	966.03
2436.41	942.867
2429.68	903.022
2422.95	944.928
2416.21	918.132
2409.47	919.18
2402.72	925.779
2395.97	913.867
2389.21	931.547
2382.44	932.575
2375.67	896.7
2368.89	916.189
2362.1	880.389
2355.31	912.738
2348.52	884.356
2341.72	892.762
2334.91	882.799
2328.09	920.53
2321.27	853.763
2314.45	887.789
2307.61	848.6
2300.77	866.124
2293.93	883.616
2287.08	924.789
2280.22	896.636
2273.36	921.335
2266.49	947.809
2259.62	828.827
2252.74	902.55
2245.85	832.805
2238.96	812.127
2232.06	833.142
2225.15	866.787
2218.24	875.059
2211.32	876.09
2204.4	804.927
2197.47	834.867
2190.53	875.562
2183.59	854.986
2176.64	825.453
2169.69	842.688
2162.73	793.469
2155.76	855.539
2148.79	838.651
2141.81	825.372
2134.82	828.216
2127.83	832.84
2120.83	826.742
2113.83	809.95
2106.82	807.446
2099.8	785.356
2092.78	807.786
2085.75	785.734
2078.72	824.107
2071.67	796.754
2064.63	811.999
2057.57	768.762
2050.51	831.786
2043.44	760.316
2036.37	777.302
2029.29	760.722
2022.21	779.439
2015.11	754.075
2008.02	793.887
2000.91	749.208
1993.8	729.208
1986.68	777.71
1979.56	778.767
1972.43	746.525
1965.29	707.337
1958.15	711.95
1951	721.797
1943.84	707.18
1936.68	682.121
1929.51	732.054
1922.33	712.241
1915.15	760.316
1907.96	745.725
1900.77	720.74
1893.57	740.913
1886.36	691.705
1879.14	678.958
1871.92	723.338
1864.7	656.987
1857.46	709.942
1850.22	736.914
1842.98	686.246
1835.72	737.307
1828.46	697.055
1821.19	710.182
1813.92	697.514
1806.64	691.734
1799.36	715.117
1792.06	687.056
1784.76	713.823
1777.46	656.738
1770.14	654.434
1762.82	674.327
1755.5	687.361
1748.17	620.279
1740.83	672.494
1733.48	629.359
1726.13	710.361
1718.77	667.268
1711.4	639.521
1704.03	593.18
1696.65	604.493
1689.26	588.718
1681.87	621.986
1674.47	631.551
1667.06	630.976
1659.65	595.005
1652.23	650.036
1644.8	671.315
1637.37	611.87
1629.93	611.312
1622.48	676.192
1615.03	593.432
1607.57	651.51
1600.1	722.866
1592.63	805.794
1585.15	664.757
1577.66	625.769
1570.16	605.19
1562.66	594.642
1555.15	569.135
1547.64	566.952
1540.11	612.943
1532.59	592.466
1525.05	581.974
1517.51	568.188
1509.96	532.912
1502.4	542.344
1494.83	593.057
1487.26	597.463
1479.69	545.797
1472.1	565.064
1464.51	544.794
1456.91	547.581
1449.3	466.576
1441.69	533.443
1434.07	583.787
1426.45	496.417
1418.81	528.696
1411.17	523.302
1403.52	544.059
1395.87	558.248
1388.21	547.948
1380.54	496.934
1372.86	496.475
1365.18	549.683
1357.49	490.683
1349.79	477.243
1342.08	496.263
1334.37	507.145
1326.65	527.72
1318.93	469.009
1311.19	433.027
1303.45	461.683
1295.7	449.965
1287.95	480.162
1280.19	445.911
1272.42	422.981
1264.64	437.049
1256.86	459.118
1249.07	473.125
1241.27	488.709
1233.46	401.809
1225.65	439.819
1217.83	447.399
1210	432.615
1202.17	403.505
1194.33	417.469
1186.48	455.286
1178.62	445.319
1170.76	417.891
1162.88	423.851
1155.01	453.589
1147.12	405.63
1139.23	413.166
1131.33	408.035
1123.42	374.473
1115.5	370.965
1107.58	381.658
1099.65	367.12
1091.71	385.666
1083.77	388.45
1075.81	381.801
1067.85	398.71
1059.89	362.266
1051.91	382.294
1043.93	325.584
1035.94	342.481
1027.94	371.844
1019.93	418.322
1011.92	336.838
1003.9	381.702
999.086	417.3