File: Akinwande-lab-measurements/raman/data/Raman 25-12-11 finished-wafer-1/d2_2.txt
2999.69	535.214
2993.45	544.865
2987.2	598.44
2980.96	619.928
2974.7	559.458
2968.44	560.977
2962.18	560.498
2955.91	635.753
2949.63	601.359
2943.35	624.72
2937.07	650.028
2930.77	562.082
2924.48	593.353
2918.18	533.363
2911.87	580.453
2905.56	613.605
2899.24	561.661
2892.91	632.315
2886.58	590.314
2880.25	595.726
2873.91	589.303
2867.56	573.044
2861.21	480.078
2854.86	532.745
2848.49	589.248
2842.13	580.893
2835.75	523.531
2829.38	542.672
2822.99	534.377
2816.6	496.758
2810.21	554.953
2803.81	521.285
2797.4	550.098
2790.99	545.726
2784.57	527.73
2778.15	525.33
2771.72	559.87
2765.29	611.83
2758.85	551.143
2752.41	525.461
2745.96	573.44
2739.5	553.589
2733.04	541.508
2726.57	627.993
2720.1	575.324
2713.62	594.116
2707.14	568.548
2700.65	656.635
2694.16	681.079
2687.66	601.676
2681.15	658.774
2674.64	619.824
2668.12	632.709
2661.6	574.692
2655.07	562.71
2648.53	545.011
2641.99	510.147
2635.45	507.795
2628.9	513.077
2622.34	541.217
2615.78	500.762
2609.21	479.401
2602.63	534.106
2596.06	545.036
2589.47	523.69
2582.88	494.798
2576.28	536.039
2569.68	529.895
2563.07	472.709
2556.46	491.189
2549.84	537.949
2543.21	454.501
2536.58	423.957
2529.94	487.596
2523.3	509.742
2516.65	467.952
2509.99	512.608
2503.33	433.367
2496.67	453.607
2489.99	456.956
2483.32	447.201
2476.63	461.766
2469.94	470.701
2463.25	466.557
2456.55	456.826
2449.84	476.918
2443.12	444.858
2436.41	485.381
2429.68	512.827
2422.95	447.402
2416.21	476.687
2409.47	489.241
2402.72	483.257
2395.97	449.534
2389.21	463.925
2382.44	463.518
2375.67	466.8
2368.89	451.643
2362.1	430.985
2355.31	439.807
2348.52	387.94
2341.72	439.033
2334.91	451.494
2328.09	509.775
2321.27	448.867
2314.45	463.115
2307.61	427.958
2300.77	420.271
2293.93	425.377
2287.08	465.131
2280.22	391.823
2273.36	391.476
2266.49	474.814
2259.62	425.319
2252.74	435.839
2245.85	428.196
2238.96	397
2232.06	443.739
2225.15	454.203
2218.24	415.834
2211.32	379.338
2204.4	447.583
2197.47	441.776
2190.53	403.551
2183.59	392.393
2176.64	395.642
2169.69	461.771
2162.73	373.397
2155.76	441.222
2148.79	440.829
2141.81	435.066
2134.82	395.325
2127.83	389.612
2120.83	339.268
2113.83	376.43
2106.82	406.397
2099.8	420.281
2092.78	384.321
2085.75	366.202
2078.72	356.995
2071.67	415.235
2064.63	400.681
2057.57	371.981
2050.51	398.195
2043.44	403.144
2036.37	356.852
2029.29	400.658
2022.21	393.246
2015.11	371.752
2008.02	357.337
2000.91	367.569
1993.8	360.211
1986.68	373.933
1979.56	384.122
1972.43	401.301
1965.29	406.194
1958.15	370.844
1951	367.016
1943.84	333.51
1936.68	331.465
1929.51	418.317
1922.33	367.44
1915.15	372.329
1907.96	411.974
1900.77	354.292
1893.57	333.151
1886.36	367.522
1879.14	419.152
1871.92	392.817
1864.7	357.885
1857.46	329.925
1850.22	339.982
1842.98	365.538
1835.72	318.696
1828.46	323.571
1821.19	364.549
1813.92	335.013
1806.64	394.786
1799.36	296.679
1792.06	327.251
1784.76	335.514
1777.46	324.948
1770.14	334.906
1762.82	322.653
1755.5	361.589
1748.17	291.395
1740.83	291.13
1733.48	331.689
1726.13	316.093
1718.77	310.713
1711.4	347.75
1704.03	306.759
1696.65	301.4
1689.26	333.268
1681.87	383.671
1674.47	307.333
1667.06	286.807
1659.65	333.742
1652.23	319.966
1644.8	361.736
1637.37	398.388
1629.93	515.584
1622.48	503.368
1615.03	484.469
1607.57	510.824
1600.1	508.684
1592.63	543.326
1585.15	567.883
1577.66	412.173
1570.16	423.466
1562.66	384.768
1555.15	349.469
1547.64	399.028
1540.11	372.084
1532.59	361.786
1525.05	331.609
1517.51	286.579
1509.96	322.726
1502.4	332.351
1494.83	312.222
1487.26	316.886
1479.69	339.68
1472.1	281.708
1464.51	316.013
1456.91	274.613
1449.3	299.003
1441.69	343.045
1434.07	301.732
1426.45	312.923
1418.81	315.908
1411.17	335.241
1403.52	362.706
1395.87	381.959
1388.21	375.083
1380.54	470.865
1372.86	512.753
1365.18	629.371
1357.49	737.649
1349.79	810.014
1342.08	708.715
1334.37	539.551
1326.65	482.394
1318.93	383.294
1311.19	336.081
1303.45	345.455
1295.7	274.172
1287.95	341.592
1280.19	275.274
1272.42	287.884
1264.64	276.37
1256.86	260.06
1249.07	263.026
1241.27	222.723
1233.46	302.557
1225.65	251.097
1217.83	260.45
1210	244.244
1202.17	237.637
1194.33	219.888
1186.48	194.213
1178.62	214.707
1170.76	236.752
1162.88	238.118
1155.01	223.622
1147.12	232.92
1139.23	242.201
1131.33	237.23
1123.42	208.567
1115.5	216.265
1107.58	228.679
1099.65	181.197
1091.71	184.175
1083.77	199.729
1075.81	223.11
1067.85	218.192
1059.89	185.054
1051.91	181.746
1043.93	214.447
1035.94	226.757
1027.94	245.292
1019.93	237.257
1011.92	226.118
1003.9	213.442
999.086	286.504