File: Akinwande-lab-measurements/raman/data/Raman 25-12-11 finished-wafer-1/d3_1.txt
2999.69	615.395
2993.45	578.919
2987.2	616.454
2980.96	579.933
2974.7	579.438
2968.44	604.897
2962.18	608.37
2955.91	601.872
2949.63	601.359
2943.35	608.803
2937.07	612.259
2930.77	528.318
2924.48	547.711
2918.18	604.743
2911.87	548.755
2905.56	609.647
2899.24	567.594
2892.91	586.868
2886.58	594.262
2880.25	568.11
2873.91	508.495
2867.56	557.29
2861.21	619.773
2854.86	503.257
2848.49	555.857
2842.13	557.343
2835.75	523.531
2829.38	556.386
2822.99	577.44
2816.6	543.696
2810.21	586.218
2803.81	574
2797.4	548.147
2790.99	534.032
2784.57	510.204
2778.15	540.896
2771.72	614.301
2765.29	528.31
2758.85	523.974
2752.41	601.081
2745.96	563.754
2739.5	561.332
2733.04	570.517
2726.57	541.04
2720.1	604.283
2713.62	574.827
2707.14	664.912
2700.65	637.379
2694.16	713.786
2687.66	643.966
2681.15	664.536
2674.64	610.23
2668.12	577.107
2661.6	568.945
2655.07	558.882
2648.53	579.433
2641.99	575.109
2635.45	500.159
2628.9	576.019
2622.34	520.254
2615.78	548.363
2609.21	536.473
2602.63	536.006
2596.06	533.642
2589.47	514.203
2582.88	494.798
2576.28	488.686
2569.68	601.809
2563.07	525.652
2556.46	453.405
2549.84	449.235
2543.21	499.763
2536.58	482.369
2529.94	513.953
2523.3	536.076
2516.65	469.832
2509.99	523.874
2503.33	482.144
2496.67	477.974
2489.99	468.192
2483.32	495.85
2476.63	465.505
2469.94	472.569
2463.25	503.881
2456.55	527.68
2449.84	499.274
2443.12	500.698
2436.41	487.241
2429.68	460.801
2422.95	488.244
2416.21	567.572
2409.47	496.653
2402.72	470.296
2395.97	458.783
2389.21	467.622
2382.44	457.978
2375.67	453.885
2368.89	440.582
2362.1	465.98
2355.31	449.008
2348.52	441.259
2341.72	475.772
2334.91	431.305
2328.09	434.593
2321.27	470.852
2314.45	448.471
2307.61	457.22
2300.77	372.762
2293.93	434.505
2287.08	503.435
2280.22	426.449
2273.36	438.818
2266.49	469.357
2259.62	436.225
2252.74	415.863
2245.85	468.113
2238.96	444.132
2232.06	414.76
2225.15	457.823
2218.24	446.569
2211.32	419.078
2204.4	413.292
2197.47	421.941
2190.53	479.217
2183.59	370.794
2176.64	393.844
2169.69	411.462
2162.73	382.373
2155.76	387.414
2148.79	388.862
2141.81	427.905
2134.82	397.114
2127.83	453.952
2120.83	389.265
2113.83	408.543
2106.82	397.484
2099.8	370.417
2092.78	412.789
2085.75	394.645
2078.72	392.516
2071.67	415.235
2064.63	356.358
2057.57	426.893
2050.51	412.353
2043.44	397.84
2036.37	358.619
2029.29	393.598
2022.21	349.16
2015.11	389.371
2008.02	359.097
2000.91	404.502
1993.8	411.168
1986.68	405.533
1979.56	364.828
1972.43	406.558
1965.29	392.187
1958.15	388.336
1951	380.997
1943.84	371.924
1936.68	390.78
1929.51	374.742
1922.33	367.44
1915.15	356.67
1907.96	358.087
1900.77	364.712
1893.57	350.502
1886.36	367.522
1879.14	398.368
1871.92	340.903
1864.7	326.765
1857.46	397.291
1850.22	352.062
1842.98	337.95
1835.72	353.149
1828.46	339.061
1821.19	337.035
1813.92	324.705
1806.64	370.756
1799.36	294.964
1792.06	356.378
1784.76	328.667
1777.46	342.051
1770.14	329.78
1762.82	363.624
1755.5	388.879
1748.17	322.068
1740.83	323.478
1733.48	355.503
1726.13	343.284
1718.77	329.389
1711.4	295.163
1704.03	318.622
1696.65	326.799
1689.26	351.877
1681.87	285.64
1674.47	310.71
1667.06	349.23
1659.65	323.629
1652.23	346.91
1644.8	338.181
1637.37	383.259
1629.93	406.421
1622.48	498.335
1615.03	472.734
1607.57	440.481
1600.1	542.15
1592.63	503.204
1585.15	481.03
1577.66	433.866
1570.16	386.788
1562.66	391.431
1555.15	357.79
1547.64	345.824
1540.11	382.051
1532.59	338.552
1525.05	301.765
1517.51	324.679
1509.96	278.041
1502.4	314.162
1494.83	330.394
1487.26	303.683
1479.69	342.978
1472.1	392.085
1464.51	279.803
1456.91	300.923
1449.3	317.075
1441.69	295.445
1434.07	306.652
1426.45	339.136
1418.81	330.64
1411.17	327.064
1403.52	352.903
1395.87	349.313
1388.21	363.668
1380.54	356.815
1372.86	457.408
1365.18	513.905
1357.49	560.548
1349.79	571.393
1342.08	517.346
1334.37	521.728
1326.65	433.831
1318.93	359.035
1311.19	418.485
1303.45	295.413
1295.7	353.199
1287.95	294.865
1280.19	262.395
1272.42	241.244
1264.64	295.651
1256.86	247.217
1249.07	277.46
1241.27	262.781
1233.46	256.133
1225.65	249.498
1217.83	294.005
1210	220.299
1202.17	258.371
1194.33	254.943
1186.48	257.889
1178.62	244.925
1170.76	235.163
1162.88	219.069
1155.01	185.559
1147.12	218.66
1139.23	224.788
1131.33	202.436
1123.42	206.987
1115.5	197.322
1107.58	187.675
1099.65	228.465
1091.71	266.031
1083.77	224.892
1075.81	248.249
1067.85	171.1
1059.89	203.873
1051.91	219.349
1043.93	209.751
1035.94	214.246
1027.94	259.353
1019.93	204.478
1011.92	221.44
1003.9	222.789
999.086	267.819