File: Akinwande-lab-measurements/raman/data/Raman 25-12-11 finished-wafer-1/d3_2.txt
2999.69	956.168
2993.45	1035.64
2987.2	1004.74
2980.96	1079.87
2974.7	1009.02
2968.44	1018.14
2962.18	1033.23
2955.91	1020.39
2949.63	947.837
2943.35	966.923
2937.07	1025.73
2930.77	987.12
2924.48	1010.09
2918.18	967.588
2911.87	944.969
2905.56	1009.48
2899.24	1040.26
2892.91	924.761
2886.58	1004.92
2880.25	982.356
2873.91	997.282
2867.56	980.673
2861.21	920.806
2854.86	977.026
2848.49	1041.01
2842.13	959.65
2835.75	941.179
2829.38	936.453
2822.99	986.541
2816.6	987.649
2810.21	935.995
2803.81	907.857
2797.4	981.202
2790.99	947.225
2784.57	1022.36
2778.15	1000.07
2771.72	938.948
2765.29	967.274
2758.85	962.559
2752.41	971.424
2745.96	1017.08
2739.5	996.847
2733.04	1021.13
2726.57	1055.03
2720.1	1152.58
2713.62	1203.66
2707.14	1273.93
2700.65	1363.34
2694.16	1373.7
2687.66	1334.07
2681.15	1206.15
2674.64	1168.65
2668.12	1069.85
2661.6	1026.78
2655.07	1025.89
2648.53	994.406
2641.99	947.688
2635.45	986.955
2628.9	907.898
2622.34	949.035
2615.78	885.378
2609.21	934.071
2602.63	893.344
2596.06	928.65
2589.47	895.587
2582.88	934.619
2576.28	924.335
2569.68	934.886
2563.07	886.801
2556.46	929.48
2549.84	851.281
2543.21	912.774
2536.58	904.441
2529.94	849.057
2523.3	887.817
2516.65	905.835
2509.99	856.225
2503.33	941.775
2496.67	849.107
2489.99	904.548
2483.32	886.917
2476.63	873.055
2469.94	881.631
2463.25	906.987
2456.55	930.432
2449.84	840.196
2443.12	899.022
2436.41	926.13
2429.68	847.279
2422.95	900.373
2416.21	869.907
2409.47	813.548
2402.72	946.146
2395.97	917.567
2389.21	852.07
2382.44	866.095
2375.67	893.01
2368.89	796.366
2362.1	814.083
2355.31	875.934
2348.52	801.62
2341.72	874.393
2334.91	833.245
2328.09	854.516
2321.27	840.938
2314.45	840.197
2307.61	868.718
2300.77	856.988
2293.93	852.58
2287.08	782.514
2280.22	792.757
2273.36	828.473
2266.49	804.092
2259.62	785.205
2252.74	802.67
2245.85	783.816
2238.96	815.753
2232.06	775.185
2225.15	810.69
2218.24	833.475
2211.32	823.705
2204.4	880.727
2197.47	782.575
2190.53	828.722
2183.59	799.187
2176.64	794.881
2169.69	812.142
2162.73	755.77
2155.76	798.145
2148.79	788.475
2141.81	780.613
2134.82	754.875
2127.83	793.522
2120.83	851.741
2113.83	767.133
2106.82	746.843
2099.8	723.026
2092.78	770.422
2085.75	700.405
2078.72	726.422
2071.67	729.323
2064.63	746.401
2057.57	729.792
2050.51	753.917
2043.44	746.17
2036.37	738.437
2029.29	718.361
2022.21	670.106
2015.11	702.981
2008.02	707.633
2000.91	766.795
1993.8	687.037
1986.68	653.066
1979.56	670.02
1972.43	672.924
1965.29	770.367
1958.15	622.738
1951	671.114
1943.84	715.911
1936.68	715.267
1929.51	671.05
1922.33	705.275
1915.15	685.502
1907.96	686.624
1900.77	724.214
1893.57	688.858
1886.36	686.504
1879.14	663.369
1871.92	647.197
1864.7	741.704
1857.46	633.939
1850.22	650.625
1842.98	684.522
1835.72	654.618
1828.46	652.306
1821.19	679.23
1813.92	664.872
1806.64	633.374
1799.36	625.941
1792.06	651.075
1784.76	624.809
1777.46	538.73
1770.14	615.134
1762.82	629.941
1755.5	627.664
1748.17	642.432
1740.83	623.121
1733.48	656.575
1726.13	613.493
1718.77	611.238
1711.4	569.971
1704.03	623.686
1696.65	587.561
1689.26	563.342
1681.87	623.676
1674.47	612.976
1667.06	603.983
1659.65	576.464
1652.23	597.831
1644.8	578.778
1637.37	573.208
1629.93	594.517
1622.48	599.008
1615.03	573.316
1607.57	638.111
1600.1	667.647
1592.63	738.923
1585.15	674.779
1577.66	680.836
1570.16	581.849
1562.66	574.654
1555.15	587.441
1547.64	585.24
1540.11	536.532
1532.59	531.062
1525.05	528.917
1517.51	554.936
1509.96	569.322
1502.4	606.83
1494.83	488.983
1487.26	587.56
1479.69	524.361
1472.1	525.526
1464.51	569.482
1456.91	552.514
1449.3	510.934
1441.69	543.291
1434.07	544.43
1426.45	543.929
1418.81	510.691
1411.17	472.607
1403.52	491.777
1395.87	530.499
1388.21	502.285
1380.54	542.554
1372.86	496.475
1365.18	509.026
1357.49	552.424
1349.79	558.407
1342.08	530.32
1334.37	486.082
1326.65	498.582
1318.93	472.244
1311.19	462.111
1303.45	464.912
1295.7	469.319
1287.95	473.717
1280.19	434.643
1272.42	488.921
1264.64	464.365
1256.86	443.065
1249.07	415.388
1241.27	443.844
1233.46	417.817
1225.65	404.634
1217.83	405.855
1210	435.808
1202.17	435.402
1194.33	438.183
1186.48	420.264
1178.62	386.473
1170.76	413.124
1162.88	444.488
1155.01	364.774
1147.12	449.996
1139.23	436.911
1131.33	411.198
1123.42	363.412
1115.5	386.751
1107.58	362.733
1099.65	390.754
1091.71	425.019
1083.77	339.697
1075.81	369.231
1067.85	315.515
1059.89	365.403
1051.91	358.793
1043.93	334.976
1035.94	337.789
1027.94	417.153
1019.93	340.277
1011.92	360.229
1003.9	383.26
999.086	359.687