File: Akinwande-lab-measurements/raman/data/Raman 25-12-11 finished-wafer-1/d4_1.txt
2999.69	902.045
2993.45	991.574
2987.2	914.673
2980.96	953.889
2974.7	907.121
2968.44	1008.16
2962.18	1029.24
2955.91	974.555
2949.63	947.837
2943.35	962.944
2937.07	930.316
2930.77	937.466
2924.48	873.162
2918.18	910.088
2911.87	990.533
2905.56	961.975
2899.24	921.598
2892.91	968.233
2886.58	918.046
2880.25	893.589
2873.91	902.678
2867.56	935.381
2861.21	875.553
2854.86	857.109
2848.49	887.801
2842.13	908.626
2835.75	819.61
2829.38	909.025
2822.99	894.542
2816.6	905.508
2810.21	883.235
2803.81	901.999
2797.4	850.505
2790.99	925.785
2784.57	880.2
2778.15	896.953
2771.72	923.396
2765.29	907.062
2758.85	912.102
2752.41	901.621
2745.96	838.85
2739.5	880.71
2733.04	922.497
2726.57	915.903
2720.1	857.194
2713.62	958.688
2707.14	1017.61
2700.65	1049.46
2694.16	969.671
2687.66	995.745
2681.15	991.042
2674.64	926.858
2668.12	906.883
2661.6	948.241
2655.07	815.355
2648.53	868.193
2641.99	875.083
2635.45	872.415
2628.9	846.863
2622.34	844.222
2615.78	854.913
2609.21	779.978
2602.63	838.223
2596.06	883.072
2589.47	872.817
2582.88	798.123
2576.28	878.876
2569.68	870.542
2563.07	813.059
2556.46	801.015
2549.84	807.868
2543.21	771.332
2536.58	876.178
2529.94	833.996
2523.3	795.649
2516.65	905.835
2509.99	854.347
2503.33	761.675
2496.67	792.874
2489.99	814.655
2483.32	761.551
2476.63	770.233
2469.94	711.655
2463.25	802.478
2456.55	803.64
2449.84	793.622
2443.12	805.956
2436.41	810.829
2429.68	785.963
2422.95	761.14
2416.21	782.731
2409.47	804.282
2402.72	825.795
2395.97	776.972
2389.21	707.902
2382.44	827.314
2375.67	809.982
2368.89	759.497
2362.1	710.942
2355.31	745.28
2348.52	774.041
2341.72	716.414
2334.91	770.843
2328.09	748.16
2321.27	751.165
2314.45	766.977
2307.61	720.578
2300.77	730.906
2293.93	799.636
2287.08	680.368
2280.22	679.767
2273.36	759.282
2266.49	780.442
2259.62	703.413
2252.74	704.607
2245.85	776.559
2238.96	716.05
2232.06	726.283
2225.15	685.829
2218.24	712.341
2211.32	715.323
2204.4	694.836
2197.47	737.496
2190.53	720.628
2183.59	669.589
2176.64	773.3
2169.69	668.4
2162.73	703.71
2155.76	713.846
2148.79	747.26
2141.81	687.512
2134.82	660.068
2127.83	741.693
2120.83	667.822
2113.83	710.044
2106.82	689.805
2099.8	671.381
2092.78	638.756
2085.75	680.851
2078.72	699.78
2071.67	677.862
2064.63	648.89
2057.57	641.225
2050.51	628.264
2043.44	641.848
2036.37	696.039
2029.29	658.351
2022.21	671.869
2015.11	660.697
2008.02	624.9
2000.91	610.27
1993.8	623.781
1986.68	637.266
1979.56	591.091
1972.43	655.4
1965.29	590.031
1958.15	629.735
1951	648.394
1943.84	619.874
1936.68	553.024
1929.51	583.9
1922.33	632.135
1915.15	650.705
1907.96	634.475
1900.77	583.539
1893.57	581.278
1886.36	622.361
1879.14	595.82
1871.92	572.787
1864.7	632.782
1857.46	611.483
1850.22	529.819
1842.98	546.583
1835.72	604.661
1828.46	557.644
1821.19	619.045
1813.92	621.921
1806.64	549.267
1799.36	579.639
1792.06	524.287
1784.76	580.302
1777.46	545.571
1770.14	553.621
1762.82	563.362
1755.5	561.145
1748.17	552.116
1740.83	534.59
1733.48	556.218
1726.13	559.112
1718.77	533.135
1711.4	532.651
1704.03	538.946
1696.65	518.137
1689.26	556.575
1681.87	550.998
1674.47	535.299
1667.06	558.431
1659.65	541.067
1652.23	562.466
1644.8	555.223
1637.37	621.955
1629.93	589.479
1622.48	630.888
1615.03	561.582
1607.57	597.915
1600.1	629.162
1592.63	650.32
1585.15	641.374
1577.66	567.364
1570.16	543.504
1562.66	513.024
1555.15	537.517
1547.64	507.097
1540.11	471.75
1532.59	545.998
1525.05	530.575
1517.51	508.553
1509.96	474.987
1502.4	491.085
1494.83	515.414
1487.26	448.923
1479.69	428.723
1472.1	461.277
1464.51	469.082
1456.91	478.517
1449.3	507.648
1441.69	449.733
1434.07	465.718
1426.45	432.522
1418.81	410.844
1411.17	441.536
1403.52	442.763
1395.87	442.354
1388.21	459.885
1380.54	475.753
1372.86	511.125
1365.18	562.693
1357.49	674.283
1349.79	706.125
1342.08	634.113
1334.37	515.247
1326.65	537.432
1318.93	480.33
1311.19	450.801
1303.45	440.697
1295.7	408.033
1287.95	406.043
1280.19	408.886
1272.42	382.774
1264.64	406.52
1256.86	361.194
1249.07	349.632
1241.27	402.183
1233.46	371.393
1225.65	420.627
1217.83	343.539
1210	383.128
1202.17	350.874
1194.33	360.107
1186.48	362.955
1178.62	343.531
1170.76	395.646
1162.88	342.891
1155.01	374.29
1147.12	377.109
1139.23	351.429
1131.33	338.448
1123.42	317.591
1115.5	325.187
1107.58	328.036
1099.65	346.637
1091.71	351.035
1083.77	342.842
1075.81	325.238
1067.85	313.945
1059.89	332.469
1051.91	338.424
1043.93	377.24
1035.94	362.811
1027.94	315.599
1019.93	309.059
1011.92	335.278
1003.9	364.564
999.086	347.231