File: Akinwande-lab-measurements/raman/data/Raman 25-12-11 finished-wafer-1/d5_1.txt
2999.69	944.141
2993.45	977.552
2987.2	1036.76
2980.96	1035.88
2974.7	963.066
2968.44	974.223
2962.18	935.494
2955.91	942.668
2949.63	971.732
2943.35	951.007
2937.07	1053.56
2930.77	969.244
2924.48	1023.98
2918.18	985.433
2911.87	978.647
2905.56	979.789
2899.24	917.643
2892.91	932.665
2886.58	933.841
2880.25	917.26
2873.91	892.823
2867.56	1047.63
2861.21	952.287
2854.86	959.333
2848.49	978.152
2842.13	977.313
2835.75	958.826
2829.38	979.553
2822.99	933.691
2816.6	944.623
2810.21	893.005
2803.81	1030.86
2797.4	944.139
2790.99	931.632
2784.57	919.146
2778.15	889.17
2771.72	909.788
2765.29	889.581
2758.85	917.924
2752.41	882.231
2745.96	933.777
2739.5	967.813
2733.04	965.044
2726.57	933.294
2720.1	1032.88
2713.62	1114.93
2707.14	1106.26
2700.65	1238.17
2694.16	1325.6
2687.66	1266.79
2681.15	1267.61
2674.64	1162.89
2668.12	1052.6
2661.6	955.904
2655.07	978.043
2648.53	891.141
2641.99	920.939
2635.45	908.686
2628.9	881.195
2622.34	914.733
2615.78	931.075
2609.21	905.535
2602.63	842.024
2596.06	869.779
2589.47	821.587
2582.88	854.996
2576.28	825.841
2569.68	925.423
2563.07	839.53
2556.46	920.034
2549.84	870.157
2543.21	842.996
2536.58	793.271
2529.94	815.17
2523.3	846.435
2516.65	856.973
2509.99	886.268
2503.33	787.939
2496.67	834.111
2489.99	827.764
2483.32	808.329
2476.63	831.926
2469.94	834.934
2463.25	836.07
2456.55	809.234
2449.84	849.51
2443.12	778.036
2436.41	840.584
2429.68	808.26
2422.95	761.14
2416.21	779.021
2409.47	839.493
2402.72	820.24
2395.97	784.371
2389.21	822.497
2382.44	818.081
2375.67	787.841
2368.89	731.845
2362.1	786.456
2355.31	774.723
2348.52	849.423
2341.72	712.74
2334.91	794.703
2328.09	795.836
2321.27	771.318
2314.45	750.502
2307.61	771.787
2300.77	825.924
2293.93	781.38
2287.08	744.209
2280.22	769.066
2273.36	2583.74
2266.49	794.996
2259.62	767.029
2252.74	730.03
2245.85	723.941
2238.96	755.931
2232.06	740.772
2225.15	691.258
2218.24	715.957
2211.32	729.774
2204.4	761.612
2197.47	739.299
2190.53	695.406
2183.59	725.388
2176.64	695.97
2169.69	677.384
2162.73	646.264
2155.76	726.401
2148.79	645.116
2141.81	666.027
2134.82	677.956
2127.83	743.48
2120.83	774.959
2113.83	672.579
2106.82	748.625
2099.8	705.218
2092.78	654.769
2085.75	695.072
2078.72	710.437
2071.67	674.313
2064.63	719.807
2057.57	676.652
2050.51	684.896
2043.44	657.761
2036.37	719.004
2029.29	663.646
2022.21	694.794
2015.11	609.603
2008.02	603.776
2000.91	606.753
1993.8	627.295
1986.68	644.288
1979.56	640.203
1972.43	615.095
1965.29	626.799
1958.15	659.472
1951	601.206
1943.84	591.936
1936.68	554.768
1929.51	608.302
1922.33	654.774
1915.15	648.965
1907.96	617.092
1900.77	600.906
1893.57	624.657
1886.36	591.156
1879.14	561.179
1871.92	612.588
1864.7	605.12
1857.46	587.3
1850.22	583.319
1842.98	587.965
1835.72	542.644
1828.46	610.999
1821.19	605.288
1813.92	541.175
1806.64	542.402
1799.36	584.784
1792.06	628.802
1784.76	546.066
1777.46	600.299
1770.14	517.738
1762.82	517.269
1755.5	533.856
1748.17	558.933
1740.83	573.748
1733.48	568.124
1726.13	560.811
1718.77	495.782
1711.4	498.724
1704.03	564.368
1696.65	519.83
1689.26	532.891
1681.87	515.505
1674.47	511.658
1667.06	502.757
1659.65	544.438
1652.23	538.89
1644.8	496.336
1637.37	514.374
1629.93	527.34
1622.48	535.248
1615.03	469.382
1607.57	530.922
1600.1	577.289
1592.63	678.74
1585.15	616.32
1577.66	532.321
1570.16	510.16
1562.66	479.711
1555.15	495.913
1547.64	527.049
1540.11	528.227
1532.59	456.381
1525.05	462.595
1517.51	520.149
1509.96	508.087
1502.4	502.66
1494.83	459.247
1487.26	402.71
1479.69	458.404
1472.1	443.155
1464.51	459.207
1456.91	435.763
1449.3	402.504
1441.69	441.526
1434.07	483.756
1426.45	424.33
1418.81	420.665
1411.17	444.807
1403.52	436.228
1395.87	430.928
1388.21	437.054
1380.54	392.659
1372.86	455.78
1365.18	400.065
1357.49	480.934
1349.79	433.414
1342.08	439.501
1334.37	437.473
1326.65	396.599
1318.93	402.701
1311.19	403.943
1303.45	377.741
1295.7	404.808
1287.95	380.263
1280.19	421.764
1272.42	379.557
1264.64	356.71
1256.86	361.194
1249.07	402.558
1241.27	350.909
1233.46	347.381
1225.65	380.644
1217.83	319.571
1210	397.495
1202.17	382.771
1194.33	328.239
1186.48	380.466
1178.62	341.941
1170.76	330.499
1162.88	325.429
1155.01	294.991
1147.12	362.849
1139.23	332.433
1131.33	321.051
1123.42	300.21
1115.5	320.451
1107.58	310.688
1099.65	329.305
1091.71	349.46
1083.77	355.424
1075.81	268.675
1067.85	288.829
1059.89	274.444
1051.91	289.854
1043.93	281.756
1035.94	295.566
1027.94	295.288
1019.93	307.498
1011.92	364.908
1003.9	341.195
999.086	297.404