File: Akinwande-lab-measurements/raman/data/Raman 25-12-11 finished-wafer-1/d5_2.txt
2999.69	1379.13
2993.45	1390.21
2987.2	1348.99
2980.96	1283.85
2974.7	1328.71
2968.44	1295.64
2962.18	1320.46
2955.91	1303.39
2949.63	1292.32
2943.35	1366.82
2937.07	1403.43
2930.77	1328.74
2924.48	1329.59
2918.18	1395.86
2911.87	1357.03
2905.56	1375.66
2899.24	1295.38
2892.91	1321.93
2886.58	1324.75
2880.25	1329.53
2873.91	1371.75
2867.56	1315.44
2861.21	1241.51
2854.86	1289.6
2848.49	1349.38
2842.13	1257.95
2835.75	1384.32
2829.38	1261.66
2822.99	1289.94
2816.6	1325.99
2810.21	1381.52
2803.81	1386.19
2797.4	1324.53
2790.99	1257.12
2784.57	1273.56
2778.15	1262.74
2771.72	1214.99
2765.29	1305.24
2758.85	1290.53
2752.41	1215.73
2745.96	1303.8
2739.5	1242.67
2733.04	1404.05
2726.57	1424.09
2720.1	1353.36
2713.62	1539.3
2707.14	1574.59
2700.65	1719.58
2694.16	1810.44
2687.66	1799.26
2681.15	1615.24
2674.64	1542.84
2668.12	1407.3
2661.6	1363.93
2655.07	1293.85
2648.53	1258.31
2641.99	1283.96
2635.45	1305.76
2628.9	1268.39
2622.34	1219.64
2615.78	1256.67
2609.21	1160.45
2602.63	1186.06
2596.06	1181.23
2589.47	1202.97
2582.88	1205.72
2576.28	1216.03
2569.68	1192.26
2563.07	1234.71
2556.46	1107.06
2549.84	1206.14
2543.21	1133.42
2536.58	1153.16
2529.94	1016.61
2523.3	1137.99
2516.65	1133.23
2509.99	1224.25
2503.33	1260.7
2496.67	1177.13
2489.99	1131.15
2483.32	1137.65
2476.63	1082.44
2469.94	1201.04
2463.25	1119.74
2456.55	1243.68
2449.84	1142
2443.12	1157.75
2436.41	1147.43
2429.68	1176.16
2422.95	1143.57
2416.21	1142.56
2409.47	1110.06
2402.72	1101.68
2395.97	1060.01
2389.21	1136.71
2382.44	1098.78
2375.67	1136.56
2368.89	1069.19
2362.1	1116.14
2355.31	1021.31
2348.52	1117.86
2341.72	1085.64
2334.91	1044.31
2328.09	1094.73
2321.27	1027.81
2314.45	1087.31
2307.61	1064.41
2300.77	1056.16
2293.93	1011.41
2287.08	1041.53
2280.22	1024.21
2273.36	1074.28
2266.49	962.363
2259.62	1086.93
2252.74	1002.43
2245.85	1039.65
2238.96	1064.1
2232.06	1007.02
2225.15	1051.36
2218.24	1052.24
2211.32	1020.6
2204.4	1005.26
2197.47	1022.4
2190.53	1025.09
2183.59	998.983
2176.64	971.121
2169.69	1060.1
2162.73	1010.69
2155.76	964.948
2148.79	1012.47
2141.81	1007.99
2134.82	1005.31
2127.83	900.754
2120.83	928.523
2113.83	993.705
2106.82	905.48
2099.8	979.469
2092.78	955.465
2085.75	963.502
2078.72	998.164
2071.67	981.303
2064.63	932.558
2057.57	967.152
2050.51	897.267
2043.44	910.611
2036.37	904.497
2029.29	926.633
2022.21	869.374
2015.11	910.881
2008.02	867.818
2000.91	893.422
1993.8	838.15
1986.68	839.155
1979.56	903.3
1972.43	863.937
1965.29	924.441
1958.15	865.885
1951	824.911
1943.84	869.569
1936.68	846.109
1929.51	807.003
1922.33	839.364
1915.15	859.487
1907.96	890.003
1900.77	866.625
1893.57	851.963
1886.36	887.601
1879.14	800.2
1871.92	792.557
1864.7	850.625
1857.46	822.22
1850.22	824.93
1842.98	825.91
1835.72	728.694
1828.46	822.697
1821.19	766.928
1813.92	798.877
1806.64	777.557
1799.36	842.02
1792.06	772.724
1784.76	794.278
1777.46	776.456
1770.14	750.122
1762.82	749.442
1755.5	753.879
1748.17	773.644
1740.83	786.563
1733.48	746.726
1726.13	703.563
1718.77	711.413
1711.4	741.301
1704.03	760.965
1696.65	760.273
1689.26	718.98
1681.87	714.946
1674.47	712.606
1667.06	693.399
1659.65	728.164
1652.23	751.077
1644.8	728.52
1637.37	704.323
1629.93	675.13
1622.48	736.596
1615.03	715.807
1607.57	731.902
1600.1	768.046
1592.63	917.803
1585.15	845.144
1577.66	745.916
1570.16	710.223
1562.66	691.251
1555.15	722.236
1547.64	671.696
1540.11	687.692
1532.59	652.21
1525.05	688.089
1517.51	631.136
1509.96	673.587
1502.4	689.504
1494.83	612.88
1487.26	650.277
1479.69	682.659
1472.1	680.384
1464.51	636.964
1456.91	661.044
1449.3	581.578
1441.69	618.794
1434.07	605.105
1426.45	638.952
1418.81	594.169
1411.17	618.151
1403.52	615.947
1395.87	618.643
1388.21	591.979
1380.54	526.261
1372.86	555.075
1365.18	606.603
1357.49	591.419
1349.79	607.105
1342.08	614.652
1334.37	594.64
1326.65	574.664
1318.93	561.194
1311.19	557.442
1303.45	521.411
1295.7	567.698
1287.95	543.002
1280.19	508.693
1272.42	511.437
1264.64	517.389
1256.86	516.909
1249.07	546.901
1241.27	522.357
1233.46	470.645
1225.65	522.985
1217.83	460.182
1210	482.103
1202.17	492.818
1194.33	476.425
1186.48	474.389
1178.62	500.983
1170.76	440.136
1162.88	492.112
1155.01	412.353
1147.12	527.636
1139.23	421.081
1131.33	464.971
1123.42	491.397
1115.5	464.101
1107.58	397.429
1099.65	453.779
1091.71	464.373
1083.77	377.441
1075.81	413.225
1067.85	411.268
1059.89	385.79
1051.91	416.763
1043.93	410.111
1035.94	450.386
1027.94	428.089
1019.93	419.883
1011.92	460.033
1003.9	442.463
999.086	460.898