File: Akinwande-lab-measurements/raman/data/Raman 25-12-11 finished-wafer-1/Si_test.txt
992.106	18.656
988.89	10.8808
985.672	18.6463
982.454	7.76661
979.234	15.5278
976.013	21.7314
972.791	13.9653
969.568	13.9604
966.344	7.7531
963.118	10.8505
959.892	18.5944
956.664	17.0389
953.436	1.54844
950.206	-4.6437
946.975	18.5682
943.742	10.8276
940.509	-3.09252
937.275	10.82
934.039	4.63549
930.802	4.63384
927.564	10.8084
924.325	12.3481
921.085	7.7148
917.844	-1.54241
914.601	16.9604
911.357	-1.5413
908.112	-9.2445
904.866	-1.5402
901.619	9.23785
898.371	3.07817
895.121	3.07706
891.871	4.61393
888.619	6.14967
885.366	23.0529
882.111	7.68152
878.856	-1.53575
875.599	-4.60556
872.341	4.60388
869.082	-4.6022
865.822	-3.06702
862.561	-3.06589
859.298	1.53239
856.034	0
852.769	7.65632
849.503	10.7149
846.236	3.06028
842.967	6.1183
839.697	9.17407
836.426	13.756
833.154	0
829.881	15.2732
826.606	3.05351
823.33	7.63095
820.053	7.62812
816.775	-1.52506
813.496	12.1959
810.215	-10.6675
806.933	-1.52336
803.65	6.09116
800.366	6.08889
797.08	6.08662
793.793	0
790.505	-6.08207
787.216	-3.0399
783.925	7.5969
780.634	-1.51881
777.341	9.10944
774.046	3.03534
770.751	9.1026
767.454	-1.51653
764.156	3.03192
760.857	15.1539
757.557	15.1482
754.255	21.1994
750.952	9.08204
747.648	3.0262
744.343	6.05012
741.036	12.0957
737.728	-4.53416
734.419	12.0865
731.108	-10.5717
727.797	-7.54833
724.484	-3.01819
721.17	10.5596
717.854	-1.50795
714.537	-6.02949
711.219	10.5476
707.9	9.03734
704.58	-4.51695
701.258	3.01015
697.935	12.036
694.611	4.51178
691.285	4.51005
687.958	10.5194
684.63	7.511
681.301	0
677.97	10.5073
674.638	4.50142
671.305	-1.4999
667.97	0
664.634	-4.49624
661.297	0
657.959	10.4832
654.619	2.99403
651.278	16.4608
647.936	-8.97519
644.593	4.48586
641.248	1.49471
637.902	10.4589
634.554	5.97423
631.206	-2.98596
627.856	7.46202
624.504	0
621.152	11.93
617.798	19.3787
614.443	-1.49009
611.086	22.3428
607.728	8.93364
604.369	7.44181
601.009	13.3901
597.647	-1.48721
594.284	7.43314
590.92	-5.9442
587.554	-1.48547
584.188	-1.4849
580.819	2.96863
577.45	2.96748
574.079	-2.96632
570.707	5.93033
567.333	7.41002
563.959	1.48143
560.582	0
557.205	4.44081
553.826	2.95938
550.446	8.87468
547.065	-2.95707
543.682	8.86774
540.298	-1.47738
536.913	17.7216
533.526	19.1909
530.138	17.7077
526.749	44.2519
523.358	123.857
519.966	252.038
516.572	42.7265
513.178	17.673
509.782	8.83302
506.384	7.35795
502.986	2.94202
499.586	11.7635
496.184	4.40956
492.782	-2.93855
489.378	-4.40609
485.972	19.0855
482.566	2.93508
479.157	13.2026
475.748	10.2647
472.337	7.329
468.925	14.6522
465.512	1.46464
462.097	4.39219
458.681	13.1714
455.263	4.38871
451.844	-5.8493
448.424	-2.92349
445.002	18.9952
441.58	1.46059
438.155	1.46001
434.73	2.91885
431.303	2.9177
427.874	-1.45827
424.444	4.37307
421.013	8.74265
417.581	1.45653
414.147	5.8238
410.712	5.82148
407.275	4.36437
403.837	7.27105
400.398	7.26815
396.957	4.35915
393.515	14.5247
390.072	10.1632
386.627	-1.45131
383.181	10.1551
379.733	1.45015
376.284	14.4957
372.834	-7.24493
369.382	2.89681
365.929	2.89565
362.474	5.78898
359.019	8.67998
355.561	1.44608
352.103	13.0095
348.643	7.2246
345.181	4.33302
341.718	28.8751
338.254	5.7727
334.788	10.0982
331.321	7.21006
327.853	10.09
324.383	7.20424
320.912	2.88053
317.439	5.75874
313.965	-7.19551
310.49	1.43852
307.013	-1.43794
303.535	5.74942
300.055	-1.43677
296.574	1.43619
293.091	2.87121
289.608	0
286.122	1.43444
282.635	2.86771
279.147	1.43327
275.658	8.59613
272.167	10.0247
268.674	4.29456
265.18	0
261.685	0
258.188	-7.14883
254.69	10.0043
251.191	17.1432
247.69	5.71205
244.187	11.4194
240.683	-4.28052
237.178	-2.85251
233.671	-1.42567
230.163	8.55049
226.653	7.12248
223.142	-5.69563
219.63	5.69329
216.116	1.42273
212.6	9.95503
209.083	5.68624
205.565	9.9468
202.045	2.84077
198.524	-5.67918
195.001	0
191.477	14.1862
187.951	-4.25408
184.424	-2.83488
180.896	14.1685
177.366	7.08129
173.834	-2.83133
170.301	5.6603
166.767	4.24346
163.231	4.24168
159.693	9.89311
156.154	-1.41271
152.614	-8.4727
149.072	5.6461
145.529	-1.41093
141.984	1.41034
138.437	5.63898
134.889	-1.40915
131.34	-2.81711
127.789	-4.22388
124.237	15.481
120.683	4.22031
117.128	7.03087
113.571	0
110.012	7.0249
106.452	14.0438
102.891	11.2303
99.328	19.6446
95.7636	-5.61035
92.1976	0
88.6301	-2.80278
85.0611	4.20237
81.4905	15.4021
77.9184	-1.39959
74.3448	-11.1919
70.7696	12.5855
67.1929	-8.38669
63.6146	0
60.0348	-5.5863
56.4535	1.39597
52.8706	2.79073
49.2861	4.18429
45.7001	9.7591
42.1126	19.5097
38.5234	2.78589
34.9327	8.35402
31.3405	0
27.7466	1.39112
24.1512	22.2482
20.5543	11.1192
16.9557	-6.94646