File: Akinwande-lab-measurements/raman/data/Raman 25-12-17 wafer-2/gr-baseline-3.txt
2999.69	60.1364
2993.45	120.191
2987.2	182.134
2980.96	145.983
2974.7	111.892
2968.44	159.709
2962.18	111.701
2955.91	91.6759
2949.63	109.519
2943.35	115.394
2937.07	149.089
2930.77	83.4186
2924.48	97.2385
2918.18	128.88
2911.87	130.75
2905.56	116.783
2899.24	108.772
2892.91	128.439
2886.58	110.56
2880.25	88.7671
2873.91	130.08
2867.56	133.907
2861.21	70.8312
2854.86	88.4631
2848.49	117.85
2842.13	82.424
2835.75	123.53
2829.38	86.2007
2822.99	121.36
2816.6	115.389
2810.21	107.473
2803.81	132.762
2797.4	111.19
2790.99	138.381
2784.57	155.788
2778.15	128.414
2771.72	139.967
2765.29	149.558
2758.85	141.667
2752.41	135.728
2745.96	143.36
2739.5	176.142
2733.04	195.329
2726.57	142.989
2720.1	225.882
2713.62	356.856
2707.14	474.111
2700.65	519.916
2694.16	629.132
2687.66	624.743
2681.15	520.489
2674.64	449.037
2668.12	266.505
2661.6	224.13
2655.07	174.172
2648.53	208.443
2641.99	145.21
2635.45	150.811
2628.9	97.2748
2622.34	141.021
2615.78	118.05
2609.21	154.093
2602.63	47.5183
2596.06	119.642
2589.47	98.6663
2582.88	115.643
2576.28	121.224
2569.68	90.8391
2563.07	153.158
2556.46	137.911
2549.84	115.14
2543.21	128.241
2536.58	120.592
2529.94	120.487
2523.3	86.5245
2516.65	120.277
2509.99	92.0066
2503.33	116.315
2496.67	108.716
2489.99	117.985
2483.32	125.366
2476.63	125.256
2469.94	117.675
2463.25	143.7
2456.55	141.709
2449.84	111.778
2443.12	100.512
2436.41	124.6
2429.68	96.6196
2422.95	109.53
2416.21	77.9021
2409.47	96.3656
2402.72	85.1717
2395.97	103.596
2389.21	127.533
2382.44	88.6408
2375.67	119.929
2368.89	64.5204
2362.1	99.4582
2355.31	82.8089
2348.52	156.279
2341.72	90.011
2334.91	119.297
2328.09	110.023
2321.27	104.43
2314.45	126.304
2307.61	109.733
2300.77	120.6
2293.93	102.237
2287.08	80.2578
2280.22	94.7664
2273.36	67.3704
2266.49	52.7571
2259.62	130.867
2252.74	87.1678
2245.85	72.5756
2238.96	99.7031
2232.06	103.237
2225.15	97.7171
2218.24	104.862
2211.32	106.576
2204.4	95.6528
2197.47	124.419
2190.53	84.6737
2183.59	77.3987
2176.64	89.9186
2169.69	113.197
2162.73	66.4216
2155.76	84.2984
2148.79	123.647
2141.81	105.633
2134.82	91.229
2127.83	121.53
2120.83	67.8536
2113.83	89.2015
2106.82	85.5572
2099.8	69.4532
2092.78	120.99
2085.75	120.882
2078.72	69.2676
2071.67	58.5587
2064.63	60.2794
2057.57	118.68
2050.51	76.0996
2043.44	70.727
2036.37	97.1627
2029.29	72.3656
2022.21	72.3009
2015.11	84.5692
2008.02	72.1715
2000.91	66.8308
1993.8	66.7709
1986.68	82.511
1979.56	80.6831
1972.43	68.3439
1965.29	35.0167
1958.15	104.956
1951	101.366
1943.84	80.3217
1936.68	75.0158
1929.51	66.2335
1922.33	57.4668
1915.15	92.2122
1907.96	78.2229
1900.77	95.5198
1893.57	55.5251
1886.36	39.8727
1879.14	93.5299
1871.92	58.8361
1864.7	95.0902
1857.46	81.1856
1850.22	88.0155
1842.98	105.178
1835.72	87.8567
1828.46	92.9407
1821.19	82.5393
1813.92	96.2088
1806.64	82.3901
1799.36	94.3199
1792.06	61.6808
1784.76	82.1666
1777.46	42.7564
1770.14	92.2701
1762.82	63.1648
1755.5	81.8693
1748.17	73.2747
1740.83	95.3409
1733.48	86.7495
1726.13	76.4742
1718.77	71.3111
1711.4	72.9427
1704.03	74.5712
1696.65	71.1168
1689.26	65.977
1681.87	109.862
1674.47	64.1683
1667.06	70.8583
1659.65	85.9639
1652.23	57.257
1644.8	62.2523
1637.37	73.9623
1629.93	89.0096
1622.48	97.3179
1615.03	105.611
1607.57	66.9933
1600.1	97.0515
1592.63	178.88
1585.15	215.462
1577.66	170.209
1570.16	116.703
1562.66	131.587
1555.15	59.909
1547.64	64.842
1540.11	78.0713
1532.59	63.0636
1525.05	76.2702
1517.51	89.4524
1509.96	51.3052
1502.4	112.437
1494.83	57.8189
1487.26	67.6685
1479.69	79.1488
1472.1	59.307
1464.51	80.6492
1456.91	95.3745
1449.3	90.3581
1441.69	65.6545
1434.07	98.391
1426.45	65.5336
1418.81	73.6573
1411.17	65.4128
1403.52	70.2539
1395.87	62.0275
1388.21	70.1243
1380.54	84.7231
1372.86	96.0394
1365.18	40.657
1357.49	43.869
1349.79	47.075
1342.08	60.0056
1334.37	77.7731
1326.65	72.8447
1318.93	93.8018
1311.19	71.0941
1303.45	14.5285
1295.7	48.3834
1287.95	58.0062
1280.19	77.2698
1272.42	90.0644
1264.64	40.17
1256.86	85.0813
1249.07	51.3221
1241.27	56.0813
1233.46	73.6383
1225.65	54.3777
1217.83	44.7399
1210	41.5055
1202.17	68.5798
1194.33	82.8565
1186.48	66.8601
1178.62	74.7499
1170.76	49.2571
1162.88	47.6237
1155.01	74.5408
1147.12	98.2386
1139.23	79.1506
1131.33	75.9136
1123.42	42.6615
1115.5	47.3573
1107.58	75.7007
1099.65	64.6005
1091.71	37.7795
1083.77	31.4534
1075.81	25.1392
1067.85	47.0917
1059.89	75.2761
1051.91	48.5702
1043.93	65.743
1035.94	50.0429
1027.94	92.1798
1019.93	51.5098
1011.92	99.8038
1003.9	87.2462
999.086	110.553