File: Akinwande-lab-measurements/raman/data/Raman 25-12-17 wafer-2/gr-baseline-2.txt
2999.69	158.359
2993.45	114.181
2987.2	148.109
2980.96	159.981
2974.7	87.9148
2968.44	179.672
2962.18	125.663
2955.91	133.528
2949.63	145.362
2943.35	177.07
2937.07	143.126
2930.77	107.252
2924.48	125.021
2918.18	180.431
2911.87	128.769
2905.56	174.185
2899.24	152.281
2892.91	104.727
2886.58	159.918
2880.25	128.219
2873.91	130.08
2867.56	159.507
2861.21	106.247
2854.86	104.19
2848.49	121.778
2842.13	129.523
2835.75	131.373
2829.38	143.015
2822.99	101.786
2816.6	152.548
2810.21	160.233
2803.81	146.428
2797.4	111.19
2790.99	105.247
2784.57	124.63
2778.15	165.382
2771.72	75.8157
2765.29	112.654
2758.85	155.251
2752.41	143.484
2745.96	156.921
2739.5	178.078
2733.04	160.518
2726.57	202.89
2720.1	250.98
2713.62	325.992
2707.14	412.438
2700.65	521.842
2694.16	748.417
2687.66	836.195
2681.15	764.408
2674.64	685.069
2668.12	440.979
2661.6	337.152
2655.07	244.989
2648.53	225.654
2641.99	145.21
2635.45	150.811
2628.9	156.403
2622.34	144.833
2615.78	100.914
2609.21	104.631
2602.63	112.143
2596.06	115.844
2589.47	92.974
2582.88	144.079
2576.28	107.965
2569.68	136.259
2563.07	109.668
2556.46	120.908
2549.84	101.927
2543.21	177.274
2536.58	114.939
2529.94	107.309
2523.3	127.906
2516.65	107.122
2509.99	76.9851
2503.33	103.183
2496.67	136.832
2489.99	101.13
2483.32	123.495
2476.63	136.473
2469.94	155.033
2463.25	153.031
2456.55	139.845
2449.84	150.9
2443.12	169.381
2436.41	154.355
2429.68	109.626
2422.95	126.238
2416.21	81.6117
2409.47	105.632
2402.72	111.093
2395.97	92.4966
2389.21	90.5671
2382.44	86.7941
2375.67	114.394
2368.89	129.041
2362.1	114.193
2355.31	62.5667
2348.52	64.3502
2341.72	67.9675
2334.91	100.944
2328.09	73.349
2321.27	93.4375
2314.45	118.982
2307.61	65.8397
2300.77	87.7088
2293.93	78.5031
2287.08	67.4895
2280.22	98.4113
2273.36	105.608
2266.49	123.706
2259.62	63.6161
2252.74	105.328
2245.85	114.307
2238.96	114.205
2232.06	110.482
2225.15	68.7639
2218.24	63.279
2211.32	72.2548
2204.4	92.0432
2197.47	147.86
2190.53	104.491
2183.59	84.5986
2176.64	98.9105
2169.69	152.726
2162.73	89.759
2155.76	34.0781
2148.79	123.647
2141.81	105.633
2134.82	123.427
2127.83	66.1268
2120.83	82.1385
2113.83	60.657
2106.82	92.6869
2099.8	108.632
2092.78	129.886
2085.75	135.104
2078.72	81.7002
2071.67	113.568
2064.63	101.057
2057.57	106.28
2050.51	95.5669
2043.44	81.3361
2036.37	120.128
2029.29	98.8409
2022.21	91.6987
2015.11	133.901
2008.02	58.0893
2000.91	28.1393
1993.8	84.3422
1986.68	122.889
1979.56	64.8973
1972.43	96.3824
1965.29	140.067
1958.15	111.953
1951	87.3846
1943.84	94.2907
1936.68	95.9505
1929.51	99.3502
1922.33	67.9154
1915.15	71.334
1907.96	90.391
1900.77	131.991
1893.57	93.6986
1886.36	100.549
1879.14	121.242
1871.92	93.4456
1864.7	102.006
1857.46	103.641
1850.22	132.886
1842.98	70.6937
1835.72	67.1845
1828.46	86.0562
1821.19	108.333
1813.92	77.3106
1806.64	61.7926
1799.36	41.1578
1792.06	114.795
1784.76	114.691
1777.46	95.7743
1770.14	97.3962
1762.82	75.1149
1755.5	69.93
1748.17	42.6016
1740.83	54.4805
1733.48	83.3476
1726.13	120.659
1718.77	129.039
1711.4	128.922
1704.03	110.162
1696.65	104.982
1689.26	79.5107
1681.87	96.3402
1674.47	87.8093
1667.06	48.926
1659.65	75.8505
1652.23	69.0452
1644.8	99.2672
1637.37	102.539
1629.93	92.3685
1622.48	104.029
1615.03	125.727
1607.57	78.7171
1600.1	128.844
1592.63	279.186
1585.15	248.866
1577.66	141.841
1570.16	136.71
1562.66	84.9489
1555.15	101.512
1547.64	89.7812
1540.11	54.816
1532.59	102.893
1525.05	87.8765
1517.51	74.5437
1509.96	54.6152
1502.4	74.4069
1494.83	107.378
1487.26	69.3189
1479.69	82.4467
1472.1	54.3648
1464.51	46.0853
1456.91	83.8638
1449.3	92.001
1441.69	88.6336
1434.07	88.5519
1426.45	68.8103
1418.81	63.8363
1411.17	96.4839
1403.52	49.0143
1395.87	97.9382
1388.21	92.9554
1380.54	92.8696
1372.86	84.6449
1365.18	56.9198
1357.49	71.4902
1349.79	126.615
1342.08	108.659
1334.37	71.292
1326.65	92.27
1318.93	72.7773
1311.19	90.4833
1303.45	64.571
1295.7	69.3495
1287.95	75.7303
1280.19	61.1719
1272.42	30.5576
1264.64	77.1264
1256.86	43.3433
1249.07	60.945
1241.27	72.1046
1233.46	46.4242
1225.65	70.3711
1217.83	76.697
1210	79.8183
1202.17	33.4925
1194.33	66.9225
1186.48	49.3492
1178.62	82.702
1170.76	79.447
1162.88	90.485
1155.01	109.432
1147.12	72.8867
1139.23	47.4904
1131.33	68.0059
1123.42	56.8819
1115.5	91.5574
1107.58	82.0091
1099.65	100.84
1091.71	75.559
1083.77	83.3516
1075.81	62.8479
1067.85	87.9045
1059.89	61.1618
1051.91	51.7037
1043.93	39.1327
1035.94	82.8835
1027.94	95.3046
1019.93	98.3368
1011.92	82.65
1003.9	119.964
999.086	115.225