File: Akinwande-lab-measurements/raman/data/Raman 25-12-17 wafer-2/gr-baseline-4.txt
2999.69	94.2136
2993.45	114.181
2987.2	96.0707
2980.96	137.984
2974.7	97.9051
2968.44	145.734
2962.18	131.647
2955.91	123.563
2949.63	105.536
2943.35	85.5508
2937.07	121.259
2930.77	91.3632
2924.48	142.881
2918.18	172.5
2911.87	132.731
2905.56	122.721
2899.24	134.482
2892.91	100.775
2886.58	175.712
2880.25	167.671
2873.91	126.138
2867.56	112.246
2861.21	116.085
2854.86	98.2924
2848.49	113.921
2842.13	107.936
2835.75	117.647
2829.38	131.26
2822.99	121.36
2816.6	144.725
2810.21	95.7489
2803.81	107.381
2797.4	122.894
2790.99	89.655
2784.57	114.893
2778.15	114.794
2771.72	99.1436
2765.29	124.308
2758.85	147.489
2752.41	96.9485
2745.96	137.548
2739.5	123.88
2733.04	212.735
2726.57	204.822
2720.1	276.078
2713.62	351.069
2707.14	506.875
2700.65	687.445
2694.16	806.136
2687.66	759.303
2681.15	654.933
2674.64	518.119
2668.12	318.272
2661.6	310.333
2655.07	206.71
2648.53	198.881
2641.99	162.406
2635.45	122.176
2628.9	141.144
2622.34	129.587
2615.78	102.818
2609.21	93.2169
2602.63	87.4337
2596.06	151.926
2589.47	111.948
2582.88	75.8312
2576.28	117.436
2569.68	85.1617
2563.07	136.14
2556.46	102.016
2549.84	162.329
2543.21	86.7513
2536.58	81.0229
2529.94	118.604
2523.3	131.668
2516.65	125.915
2509.99	122.05
2503.33	146.332
2496.67	101.218
2489.99	106.748
2483.32	65.4897
2476.63	100.953
2469.94	89.6574
2463.25	128.77
2456.55	123.063
2449.84	115.504
2443.12	148.906
2436.41	111.582
2429.68	107.768
2422.95	172.649
2416.21	129.837
2409.47	100.072
2402.72	120.351
2395.97	86.9468
2389.21	99.8086
2382.44	75.714
2375.67	75.6475
2368.89	94.0154
2362.1	86.5654
2355.31	82.8089
2348.52	102.96
2341.72	128.587
2334.91	139.486
2328.09	124.693
2321.27	146.569
2314.45	98.8466
2307.61	98.7595
2300.77	127.909
2293.93	62.0722
2287.08	134.979
2280.22	85.6542
2273.36	65.5495
2266.49	94.599
2259.62	129.05
2252.74	110.776
2245.85	108.863
2238.96	68.8858
2232.06	77.8807
2225.15	85.05
2218.24	-1.80797
2211.32	104.769
2204.4	72.1908
2197.47	45.0792
2190.53	102.689
2183.59	89.9985
2176.64	64.7414
2169.69	77.2613
2162.73	77.1927
2155.76	66.3626
2148.79	103.935
2141.81	91.3102
2134.82	76.9185
2127.83	101.871
2120.83	74.9961
2113.83	115.962
2106.82	92.6869
2099.8	103.289
2092.78	104.977
2085.75	94.2169
2078.72	74.5959
2071.67	115.343
2064.63	111.694
2057.57	111.594
2050.51	65.481
2043.44	91.9451
2036.37	137.794
2029.29	82.9557
2022.21	102.279
2015.11	59.9032
2008.02	117.939
2000.91	84.4178
1993.8	103.671
1986.68	59.6888
1979.56	96.4689
1972.43	126.173
1965.29	43.7709
1958.15	76.9676
1951	113.6
1943.84	104.767
1936.68	76.7604
1929.51	102.836
1922.33	78.3639
1915.15	62.6347
1907.96	107.774
1900.77	71.2057
1893.57	58.9954
1886.36	112.684
1879.14	72.7455
1871.92	74.4104
1864.7	102.006
1857.46	38.0018
1850.22	62.1286
1842.98	113.8
1835.72	60.2938
1828.46	58.5182
1821.19	68.7828
1813.92	94.4908
1806.64	106.421
1799.36	66.8814
1792.06	49.6873
1784.76	47.9305
1777.46	95.7743
1770.14	35.8828
1762.82	71.7006
1755.5	88.6917
1748.17	30.6731
1740.83	80.0183
1733.48	86.7495
1726.13	107.064
1718.77	78.1026
1711.4	76.3353
1704.03	74.5712
1696.65	116.835
1689.26	94.7362
1681.87	77.7482
1674.47	72.6115
1667.06	97.852
1659.65	94.3917
1652.23	84.2015
1644.8	62.2523
1637.37	89.0909
1629.93	92.3685
1622.48	119.131
1615.03	77.1127
1607.57	93.7906
1600.1	127.171
1592.63	219.002
1585.15	250.537
1577.66	150.184
1570.16	136.71
1562.66	63.2952
1555.15	104.841
1547.64	114.72
1540.11	81.3935
1532.59	71.3614
1525.05	64.6638
1517.51	84.4828
1509.96	44.6852
1502.4	133.932
1494.83	82.5984
1487.26	67.6685
1479.69	61.0105
1472.1	54.3648
1464.51	72.4197
1456.91	34.5322
1449.3	72.2865
1441.69	75.5027
1434.07	101.671
1426.45	72.0869
1418.81	91.6624
1411.17	52.3302
1403.52	62.0848
1395.87	60.3952
1388.21	75.0167
1380.54	84.7231
1372.86	65.1114
1365.18	52.041
1357.49	74.7398
1349.79	37.3353
1342.08	58.3838
1334.37	72.9122
1326.65	64.7509
1318.93	46.9009
1311.19	59.7836
1303.45	90.3995
1295.7	19.3534
1287.95	22.558
1280.19	80.4894
1272.42	94.8893
1264.64	64.272
1256.86	51.3698
1249.07	44.9068
1241.27	76.9115
1233.46	35.2183
1225.65	52.7783
1217.83	59.1206
1210	46.2946
1202.17	55.8208
1194.33	71.7027
1186.48	54.1249
1178.62	77.9307
1170.76	55.6129
1162.88	31.7491
1155.01	80.8847
1147.12	38.0278
1139.23	74.4016
1131.33	45.8644
1123.42	41.0814
1115.5	48.9358
1107.58	91.4717
1099.65	85.0836
1091.71	83.4297
1083.77	55.0435
1075.81	50.2783
1067.85	58.0798
1059.89	65.8666
1051.91	76.7722
1043.93	72.0042
1035.94	67.2451
1027.94	101.554
1019.93	99.8977
1011.92	102.923
1003.9	87.2462
999.086	121.453