File: Akinwande-lab-measurements/raman/data/Raman 25-12-17 wafer-2/gr-baseline-1.txt
2999.69	144.327
2993.45	90.1431
2987.2	118.087
2980.96	123.986
2974.7	135.868
2968.44	131.76
2962.18	105.717
2955.91	147.479
2949.63	127.44
2943.35	139.269
2937.07	117.283
2930.77	111.225
2924.48	182.57
2918.18	87.2415
2911.87	126.788
2905.56	95.0099
2899.24	191.835
2892.91	132.391
2886.58	88.8432
2880.25	76.9315
2873.91	147.818
2867.56	124.061
2861.21	100.344
2854.86	125.814
2848.49	115.885
2842.13	135.411
2835.75	101.961
2829.38	101.874
2822.99	97.8712
2816.6	162.327
2810.21	115.29
2803.81	136.667
2797.4	122.894
2790.99	157.871
2784.57	109.051
2778.15	128.414
2771.72	165.239
2765.29	101
2758.85	180.48
2752.41	135.728
2745.96	96.8649
2739.5	125.816
2733.04	145.047
2726.57	142.989
2720.1	142.866
2713.62	273.911
2707.14	238.983
2700.65	369.718
2694.16	432.889
2687.66	501.717
2681.15	491.68
2674.64	408.739
2668.12	343.197
2661.6	227.961
2655.07	208.624
2648.53	174.021
2641.99	116.55
2635.45	108.813
2628.9	131.607
2622.34	91.4733
2615.78	144.707
2609.21	106.534
2602.63	96.9373
2596.06	75.9632
2589.47	96.7689
2582.88	94.789
2576.28	41.6709
2569.68	104.086
2563.07	115.341
2556.46	120.908
2549.84	107.59
2543.21	101.838
2536.58	107.402
2529.94	105.426
2523.3	99.6913
2516.65	131.553
2509.99	99.5174
2503.33	136.951
2496.67	88.0972
2489.99	138.585
2483.32	69.2319
2476.63	84.1274
2469.94	145.693
2463.25	111.974
2456.55	130.522
2449.84	130.407
2443.12	80.0372
2436.41	89.2656
2429.68	100.336
2422.95	64.9754
2416.21	142.821
2409.47	77.8337
2402.72	138.867
2395.97	86.9468
2389.21	107.202
2382.44	134.808
2375.67	108.859
2368.89	103.233
2362.1	101.3
2355.31	114.092
2348.52	137.893
2341.72	73.4784
2334.91	77.0843
2328.09	102.689
2321.27	87.9412
2314.45	113.491
2307.61	109.733
2300.77	102.327
2293.93	135.098
2287.08	63.8415
2280.22	142.15
2273.36	92.8619
2266.49	54.5764
2259.62	87.245
2252.74	105.328
2245.85	70.7612
2238.96	112.393
2232.06	97.8037
2225.15	124.861
2218.24	108.478
2211.32	86.7058
2204.4	101.067
2197.47	82.9457
2190.53	90.0784
2183.59	43.1993
2176.64	95.3137
2169.69	84.4484
2162.73	62.8313
2155.76	102.234
2148.79	109.311
2141.81	84.1486
2134.82	94.8066
2127.83	112.594
2120.83	73.2104
2113.83	33.8966
2106.82	73.0801
2099.8	49.8639
2092.78	58.7157
2085.75	99.55
2078.72	110.118
2071.67	81.6273
2064.63	69.144
2057.57	109.823
2050.51	90.2576
2043.44	63.6543
2036.37	125.428
2029.29	104.136
2022.21	95.2256
2015.11	89.8548
2008.02	75.6921
2000.91	98.4874
1993.8	86.0993
1986.68	91.2888
1979.56	142.072
1972.43	64.8391
1965.29	66.5317
1958.15	68.2213
1951	75.1508
1943.84	64.6066
1936.68	90.7168
1929.51	67.9765
1922.33	73.1396
1915.15	88.7325
1907.96	85.1761
1900.77	81.626
1893.57	85.0228
1886.36	79.7454
1879.14	81.4056
1871.92	124.594
1864.7	79.53
1857.46	93.2771
1850.22	70.7576
1842.98	75.8664
1835.72	89.5794
1828.46	55.076
1821.19	101.455
1813.92	44.6684
1806.64	72.0914
1799.36	109.754
1792.06	58.2541
1784.76	82.1666
1777.46	87.223
1770.14	52.9699
1762.82	25.6074
1755.5	73.3412
1748.17	73.2747
1740.83	80.0183
1733.48	62.9359
1726.13	96.8673
1718.77	59.4259
1711.4	103.477
1704.03	67.792
1696.65	84.6629
1689.26	62.5936
1681.87	69.2973
1674.47	79.3661
1667.06	84.3551
1659.65	47.1958
1652.23	63.9931
1644.8	72.3473
1637.37	84.048
1629.93	78.9331
1622.48	70.4716
1615.03	68.7309
1607.57	66.9933
1600.1	90.3583
1592.63	143.772
1585.15	145.311
1577.66	123.485
1570.16	98.3642
1562.66	86.6145
1555.15	74.8862
1547.64	54.8663
1540.11	93.0211
1532.59	58.0849
1525.05	76.2702
1517.51	69.5741
1509.96	46.3402
1502.4	89.2883
1494.83	64.4268
1487.26	80.8721
1479.69	57.7127
1472.1	102.14
1464.51	65.8361
1456.91	72.3531
1449.3	52.572
1441.69	80.4268
1434.07	68.8737
1426.45	47.5118
1418.81	42.5576
1411.17	71.9541
1403.52	62.0848
1395.87	60.3952
1388.21	58.7087
1380.54	79.8353
1372.86	66.7392
1365.18	40.657
1357.49	74.7398
1349.79	71.4241
1342.08	53.5185
1334.37	115.039
1326.65	69.6072
1318.93	85.7154
1311.19	64.631
1303.45	24.2141
1295.7	79.0262
1287.95	62.84
1280.19	41.8545
1272.42	67.5483
1264.64	88.374
1256.86	70.6335
1249.07	81.7946
1241.27	65.6953
1233.46	86.445
1225.65	43.1823
1217.83	70.3056
1210	51.0837
1202.17	100.477
1194.33	50.9886
1186.48	70.044
1178.62	65.2074
1170.76	81.0359
1162.88	49.2112
1155.01	49.1652
1147.12	49.1193
1139.23	58.5715
1131.33	75.9136
1123.42	91.6431
1115.5	71.0359
1107.58	39.4275
1099.65	15.7562
1091.71	72.4107
1083.77	39.3168
1075.81	56.5631
1067.85	81.6257
1059.89	65.8666
1051.91	75.2054
1043.93	73.5695
1035.94	59.4259
1027.94	89.0551
1019.93	84.2887
1011.92	43.6642
1003.9	109.058
999.086	87.1969