File: Akinwande-lab-measurements/raman/data/Raman 25-12-17 wafer-2/Si_test.txt
992.106	24.8746
988.89	12.4352
985.672	13.9847
982.454	9.31993
979.234	4.65835
976.013	9.31345
972.791	18.6204
969.568	18.6139
966.344	29.4618
963.118	17.0508
959.892	17.0449
956.664	12.3919
953.436	7.74222
950.206	1.5479
946.975	24.7576
943.742	7.73403
940.509	20.1014
937.275	15.4571
934.039	-1.54516
930.802	-7.72306
927.564	6.17625
924.325	0
921.085	10.8007
917.844	4.62723
914.601	3.08371
911.357	7.70652
908.112	-1.54075
904.866	16.9422
901.619	3.07928
898.371	6.15635
895.121	6.15412
891.871	0
888.619	-3.07484
885.366	6.14744
882.111	-4.60891
878.856	-12.286
875.599	1.53519
872.341	9.20777
869.082	1.53407
865.822	1.53351
862.561	4.59884
859.298	0
856.034	4.59548
852.769	1.53126
849.503	6.1228
846.236	-3.06028
842.967	1.52958
839.697	-9.17407
836.426	6.11379
833.154	-22.9183
829.881	0
826.606	0
823.33	12.2095
820.053	-9.15374
816.775	19.8257
813.496	4.57347
810.215	4.57177
806.933	1.52336
803.65	3.04558
800.366	7.61111
797.08	10.6516
793.793	-6.08435
790.505	9.12311
787.216	12.1596
783.925	3.03876
780.634	9.11286
777.341	3.03648
774.046	4.55301
770.751	10.6197
767.454	12.1322
764.156	-1.51596
760.857	10.6077
757.557	1.51482
754.255	19.6852
750.952	-7.56837
747.648	10.5917
744.343	-10.5877
741.036	-4.53587
737.728	9.06831
734.419	1.51081
731.108	0
727.797	4.529
724.484	-4.52728
721.17	4.52556
717.854	4.52384
714.537	0
711.219	1.5068
707.9	10.5436
704.58	-3.0113
701.258	12.0406
697.935	9.027
694.611	-7.51963
691.285	6.0134
687.958	7.51388
684.63	13.5198
681.301	12.013
677.97	-6.0042
674.638	4.50142
671.305	10.4993
667.97	7.49661
664.634	13.4887
661.297	23.9707
657.959	13.4783
654.619	11.9761
651.278	5.98576
647.936	10.4711
644.593	7.47644
641.248	4.48413
637.902	13.4472
634.554	-8.96134
631.206	7.4649
627.856	1.4924
624.504	-2.98365
621.152	-2.9825
617.798	14.9067
614.443	1.49009
611.086	8.9371
607.728	7.4447
604.369	2.97672
601.009	5.95114
597.647	8.92324
594.284	0
590.92	2.9721
587.554	-5.94189
584.188	2.96979
580.819	8.9059
577.45	-2.96748
574.079	0
570.707	-2.96517
567.333	4.44601
563.959	-1.48143
560.582	2.9617
557.205	4.44081
553.826	16.2766
550.446	4.43734
547.065	-1.47853
543.682	-5.91183
540.298	1.47738
536.913	11.8144
533.526	14.7622
530.138	0
526.749	19.1758
523.358	101.739
519.966	206.347
516.572	95.7663
513.178	25.0367
509.782	16.1939
506.384	2.94318
502.986	13.2391
499.586	5.88173
496.184	10.289
492.782	-4.40783
489.378	8.81218
485.972	2.93623
482.566	16.1429
479.157	2.93392
475.748	10.2647
472.337	-2.9316
468.925	13.187
465.512	8.78785
462.097	11.7125
458.681	-7.31742
455.263	2.92581
451.844	2.92465
448.424	7.30873
445.002	4.3835
441.58	-1.46059
438.155	-5.84003
434.73	-1.45943
431.303	13.1296
427.874	7.29134
424.444	-2.91538
421.013	8.74265
417.581	8.73917
414.147	7.27975
410.712	0
407.275	4.36437
403.837	-2.90842
400.398	4.36089
396.957	17.4366
393.515	-1.45247
390.072	8.71133
386.627	26.1235
383.181	2.90146
379.733	-5.80059
376.284	2.89913
372.834	17.3878
369.382	4.34522
365.929	-1.44782
362.474	1.44724
359.019	11.5733
355.561	4.33825
352.103	2.891
348.643	11.5594
345.181	11.5547
341.718	-4.33127
338.254	0
334.788	4.32778
331.321	-7.21006
327.853	2.88286
324.383	0
320.912	4.3208
317.439	4.31905
313.965	1.4391
310.49	4.31556
307.013	17.2552
303.535	27.3097
300.055	17.2413
296.574	10.0533
293.091	11.4848
289.608	10.0452
286.122	1.43444
282.635	-7.16928
279.147	-5.73309
275.658	-7.16344
272.167	18.6174
268.674	8.58912
265.18	4.29281
261.685	7.15176
258.188	14.2977
254.69	8.57509
251.191	12.8574
247.69	4.28403
244.187	14.2743
240.683	11.4147
237.178	15.6888
233.671	21.385
230.163	9.97557
226.653	9.97147
223.142	11.3913
219.63	-5.69329
216.116	5.69094
212.6	-1.42215
209.083	19.9018
205.565	9.9468
202.045	2.84077
198.524	7.09897
195.001	9.93444
191.477	2.83723
187.951	4.25408
184.424	9.92206
180.896	4.25054
177.366	-5.66503
173.834	-4.247
170.301	4.24523
166.767	8.48691
163.231	-14.1389
159.693	2.8266
156.154	9.88897
152.614	5.64847
149.072	5.6461
145.529	9.87652
141.984	8.46203
138.437	8.45846
134.889	1.40915
131.34	5.63422
127.789	5.63184
124.237	-5.62946
120.683	12.6609
117.128	7.03087
113.571	14.0558
110.012	21.0747
106.452	14.0438
102.891	2.80757
99.328	12.6287
95.7636	0
92.1976	5.60795
88.6301	9.80972
85.0611	9.80552
81.4905	1.40019
77.9184	2.79918
74.3448	2.79797
70.7696	-1.39838
67.1929	5.59113
63.6146	-2.79436
60.0348	4.18973
56.4535	8.37583
52.8706	6.97684
49.2861	1.39476
45.7001	8.36494
42.1126	9.75486
38.5234	0
34.9327	9.74636
31.3405	11.1338
27.7466	-12.5201
24.1512	2.78102
20.5543	0
16.9557	0