File: Akinwande-lab-measurements/raman/data/Raman 25-10-21 Gr-through-finished-wafer/Gr-alox-channel-outsidewafer.txt
2999.69	416.945
2993.45	462.734
2987.2	484.356
2980.96	443.948
2974.7	451.562
2968.44	463.155
2962.18	464.755
2955.91	498.239
2949.63	461.971
2943.35	395.921
2937.07	455.219
2930.77	381.342
2924.48	414.752
2918.18	418.363
2911.87	439.797
2905.56	417.648
2899.24	458.821
2892.91	411.005
2886.58	501.471
2880.25	406.356
2873.91	431.63
2867.56	439.137
2861.21	460.403
2854.86	418.725
2848.49	377.119
2842.13	429.782
2835.75	435.295
2829.38	385.944
2822.99	450.207
2816.6	441.998
2810.21	457.25
2803.81	441.238
2797.4	413.548
2790.99	440.479
2784.57	416.732
2778.15	377.46
2771.72	441.286
2765.29	413.713
2758.85	397.832
2752.41	434.329
2745.96	463.014
2739.5	462.615
2733.04	526.036
2726.57	548.769
2720.1	621.659
2713.62	736.859
2707.14	954.005
2700.65	1101.45
2694.16	1185.15
2687.66	1034.19
2681.15	877.725
2674.64	683.15
2668.12	513.836
2661.6	570.86
2655.07	467.011
2648.53	411.149
2641.99	384.043
2635.45	442.889
2628.9	352.859
2622.34	325.874
2615.78	350.343
2609.21	348.136
2602.63	366.841
2596.06	341.834
2589.47	383.281
2582.88	312.804
2576.28	314.426
2569.68	365.249
2563.07	387.621
2556.46	355.167
2549.84	315.219
2543.21	320.602
2536.58	363.661
2529.94	310.631
2523.3	331.05
2516.65	357.072
2509.99	339.861
2503.33	352.697
2496.67	320.524
2489.99	327.735
2483.32	379.84
2476.63	343.987
2469.94	347.422
2463.25	371.379
2456.55	335.627
2449.84	286.896
2443.12	353.653
2436.41	377.519
2429.68	377.188
2422.95	345.298
2416.21	337.576
2409.47	303.922
2402.72	296.249
2395.97	321.888
2389.21	310.516
2382.44	373.03
2375.67	311.815
2368.89	357.627
2362.1	296.533
2355.31	303.633
2348.52	296.011
2341.72	323.305
2334.91	323.02
2328.09	289.728
2321.27	289.473
2314.45	292.879
2307.61	310.909
2300.77	314.29
2293.93	273.848
2287.08	308.263
2280.22	318.925
2273.36	291.331
2266.49	301.989
2259.62	261.735
2252.74	257.871
2245.85	268.53
2238.96	295.484
2232.06	257.187
2225.15	309.437
2218.24	334.475
2211.32	308.889
2204.4	283.349
2197.47	286.704
2190.53	268.434
2183.59	277.195
2176.64	231.99
2169.69	282.094
2162.73	247.735
2155.76	261.863
2148.79	286.718
2141.81	298.996
2134.82	339.873
2127.83	253.784
2120.83	274.986
2113.83	231.924
2106.82	245.977
2099.8	245.758
2092.78	286.462
2085.75	282.651
2078.72	262.862
2071.67	259.078
2064.63	273.03
2057.57	274.558
2050.51	260.154
2043.44	233.399
2036.37	252.623
2029.29	270.047
2022.21	227.483
2015.11	241.375
2008.02	207.713
2000.91	228.632
1993.8	216.127
1986.68	198.378
1979.56	268.359
1972.43	217.298
1965.29	215.353
1958.15	223.906
1951	221.957
1943.84	214.773
1936.68	244.238
1929.51	228.331
1922.33	207.229
1915.15	208.782
1907.96	252.052
1900.77	230.984
1893.57	246.393
1886.36	234.036
1879.14	223.432
1871.92	219.77
1864.7	247.235
1857.46	219.374
1850.22	203.644
1842.98	215.53
1835.72	215.335
1828.46	203.093
1821.19	204.629
1813.92	180.392
1806.64	178.512
1799.36	204.074
1792.06	169.622
1784.76	190.01
1777.46	227.464
1770.14	174.288
1762.82	196.323
1755.5	191.028
1748.17	206.192
1740.83	194.087
1733.48	210.92
1726.13	185.238
1718.77	202.048
1711.4	171.33
1704.03	223.713
1696.65	201.498
1689.26	201.314
1681.87	185.92
1674.47	182.373
1667.06	205.827
1659.65	180.356
1652.23	207.136
1644.8	232.184
1637.37	206.758
1629.93	191.455
1622.48	209.737
1615.03	211.222
1607.57	244.525
1600.1	332.987
1592.63	489.829
1585.15	287.282
1577.66	233.62
1570.16	228.405
1562.66	204.877
1555.15	191.376
1547.64	156.286
1540.11	212.62
1532.59	214.084
1525.05	208.914
1517.51	182.218
1509.96	208.531
1502.4	186.844
1494.83	178.413
1487.26	153.492
1479.69	140.159
1472.1	113.672
1464.51	189.279
1456.91	185.816
1449.3	161.002
1441.69	154.288
1434.07	162.345
1426.45	165.472
1418.81	173.504
1411.17	143.908
1403.52	176.452
1395.87	166.495
1388.21	190.803
1380.54	140.119
1372.86	138.362
1365.18	180.517
1357.49	191.724
1349.79	214.272
1342.08	167.043
1334.37	181.47
1326.65	123.027
1318.93	139.085
1311.19	140.572
1303.45	138.828
1295.7	101.605
1287.95	146.627
1280.19	133.612
1272.42	152.788
1264.64	141.398
1256.86	80.2653
1249.07	166.797
1241.27	124.981
1233.46	132.869
1225.65	131.146
1217.83	150.198
1210	146.866
1202.17	102.072
1194.33	127.471
1186.48	125.761
1178.62	132.005
1170.76	127.115
1162.88	128.584
1155.01	157.011
1147.12	118.837
1139.23	113.977
1131.33	145.501
1123.42	134.305
1115.5	101.029
1107.58	119.859
1099.65	143.382
1091.71	116.487
1083.77	121.096
1075.81	105.27
1067.85	114.59
1059.89	112.914
1051.91	125.342
1043.93	118.964
1035.94	151.692
1027.94	95.3046
1019.93	127.994
1011.92	145.027
1003.9	127.753
999.086	177.508