File: Akinwande-lab-measurements/raman/data/Raman 25-10-21 Gr-through-finished-wafer/Gr-alox-channel-centerwafer.txt
2999.69	483.095
2993.45	492.782
2987.2	524.386
2980.96	521.939
2974.7	471.543
2968.44	497.093
2962.18	504.648
2955.91	444.429
2949.63	479.892
2943.35	509.326
2937.07	425.401
2930.77	454.83
2924.48	555.648
2918.18	515.518
2911.87	435.835
2905.56	445.359
2899.24	460.799
2892.91	418.909
2886.58	519.239
2880.25	477.37
2873.91	437.543
2867.56	474.583
2861.21	476.143
2854.86	438.384
2848.49	445.864
2842.13	496.506
2835.75	450.982
2829.38	452.554
2822.99	463.909
2816.6	479.157
2810.21	425.985
2803.81	538.857
2797.4	429.154
2790.99	456.071
2784.57	451.784
2778.15	505.874
2771.72	485.998
2765.29	479.752
2758.85	465.754
2752.41	484.742
2745.96	433.955
2739.5	551.653
2733.04	516.366
2726.57	589.347
2720.1	658.34
2713.62	802.443
2707.14	919.314
2700.65	1109.16
2694.16	1096.65
2687.66	1022.66
2681.15	854.677
2674.64	665.879
2668.12	590.528
2661.6	542.126
2655.07	447.871
2648.53	439.834
2641.99	420.346
2635.45	425.708
2628.9	440.597
2622.34	402.101
2615.78	476.01
2609.21	399.501
2602.63	420.062
2596.06	393.11
2589.47	413.64
2582.88	400.009
2576.28	390.191
2569.68	429.593
2563.07	395.184
2556.46	406.175
2549.84	383.171
2543.21	407.354
2536.58	367.429
2529.94	399.113
2523.3	372.432
2516.65	349.555
2509.99	388.681
2503.33	358.325
2496.67	380.505
2489.99	374.554
2483.32	394.809
2476.63	362.682
2469.94	353.026
2463.25	367.647
2456.55	316.981
2449.84	339.059
2443.12	346.207
2436.41	338.465
2429.68	408.775
2422.95	393.565
2416.21	370.962
2409.47	359.518
2402.72	362.905
2395.97	329.288
2389.21	323.454
2382.44	369.337
2375.67	297.055
2368.89	337.349
2362.1	364.68
2355.31	417.725
2348.52	353.007
2341.72	371.066
2334.91	328.526
2328.09	390.583
2321.27	386.575
2314.45	358.777
2307.61	312.738
2300.77	294.19
2293.93	323.141
2287.08	326.503
2280.22	368.131
2273.36	333.21
2266.49	378.396
2259.62	281.729
2252.74	341.407
2245.85	339.291
2238.96	322.676
2232.06	289.789
2225.15	334.771
2218.24	307.355
2211.32	350.436
2204.4	315.835
2197.47	310.145
2190.53	302.664
2183.59	289.795
2176.64	325.505
2169.69	350.371
2162.73	326.723
2155.76	269.038
2148.79	333.31
2141.81	295.415
2134.82	261.165
2127.83	307.4
2120.83	337.482
2113.83	337.182
2106.82	276.278
2099.8	304.526
2092.78	277.565
2085.75	286.206
2078.72	298.384
2071.67	267.951
2064.63	306.716
2057.57	244.445
2050.51	302.629
2043.44	277.604
2036.37	293.255
2029.29	232.982
2022.21	294.494
2015.11	258.993
2008.02	281.645
2000.91	270.84
1993.8	260.055
1986.68	215.933
1979.56	273.621
1972.43	303.166
1965.29	276.632
1958.15	267.637
1951	272.64
1943.84	277.634
1936.68	273.895
1929.51	289.336
1922.33	247.282
1915.15	262.718
1907.96	272.911
1900.77	251.825
1893.57	242.922
1886.36	272.175
1879.14	270.197
1871.92	240.536
1864.7	261.066
1857.46	245.284
1850.22	184.66
1842.98	213.805
1835.72	246.343
1828.46	215.141
1821.19	226.983
1813.92	214.752
1806.64	233.439
1799.36	219.508
1792.06	239.87
1784.76	188.299
1777.46	206.941
1770.14	215.297
1762.82	208.273
1755.5	221.729
1748.17	231.753
1740.83	245.162
1733.48	234.734
1726.13	226.024
1718.77	210.538
1711.4	239.184
1704.03	225.408
1696.65	237.056
1689.26	230.074
1681.87	216.343
1674.47	219.523
1667.06	194.017
1659.65	234.294
1652.23	217.24
1644.8	185.074
1637.37	196.672
1629.93	226.723
1622.48	204.703
1615.03	216.251
1607.57	269.648
1600.1	369.8
1592.63	498.188
1585.15	355.762
1577.66	265.326
1570.16	203.397
1562.66	244.853
1555.15	226.323
1547.64	261.03
1540.11	191.025
1532.59	230.68
1525.05	223.836
1517.51	202.096
1509.96	243.286
1502.4	248.023
1494.83	224.668
1487.26	193.103
1479.69	216.01
1472.1	197.69
1464.51	241.948
1456.91	233.503
1449.3	210.288
1441.69	201.888
1434.07	180.384
1426.45	167.111
1418.81	180.051
1411.17	225.674
1403.52	197.691
1395.87	210.567
1388.21	181.018
1380.54	161.3
1372.86	206.729
1365.18	193.527
1357.49	259.964
1349.79	220.765
1342.08	210.831
1334.37	204.154
1326.65	184.54
1318.93	182.752
1311.19	198.74
1303.45	169.499
1295.7	167.729
1287.95	174.019
1280.19	148.1
1272.42	175.304
1264.64	126.937
1256.86	166.952
1249.07	182.835
1241.27	144.209
1233.46	192.1
1225.65	174.328
1217.83	145.405
1210	169.215
1202.17	156.298
1194.33	159.339
1186.48	165.558
1178.62	168.585
1170.76	150.949
1162.88	161.921
1155.01	187.145
1147.12	185.386
1139.23	164.633
1131.33	170.806
1123.42	158.005
1115.5	183.115
1107.58	151.401
1099.65	152.835
1091.71	135.377
1083.77	154.122
1075.81	169.689
1067.85	142.845
1059.89	147.416
1051.91	120.642
1043.93	126.79
1035.94	165.767
1027.94	162.486
1019.93	146.725
1011.92	177.776
1003.9	143.333
999.086	203.979