File: Akinwande-lab-measurements/raman/data/Raman 25-10-21 Gr-through-finished-wafer/Gr-baseline-channel-2.txt
2999.69	192.436
2993.45	206.327
2987.2	170.125
2980.96	191.978
2974.7	161.843
2968.44	211.614
2962.18	201.46
2955.91	239.155
2949.63	197.134
2943.35	210.893
2937.07	184.87
2930.77	186.699
2924.48	182.57
2918.18	182.414
2911.87	148.58
2905.56	182.102
2899.24	181.946
2892.91	191.671
2886.58	173.738
2880.25	181.479
2873.91	191.178
2867.56	224.491
2861.21	198.721
2854.86	220.175
2848.49	247.484
2842.13	198.21
2835.75	207.844
2829.38	209.624
2822.99	213.359
2816.6	211.22
2810.21	203.222
2803.81	205
2797.4	169.711
2790.99	204.647
2784.57	218.103
2778.15	245.154
2771.72	217.727
2765.29	211.713
2758.85	217.352
2752.41	236.554
2745.96	242.162
2739.5	294.215
2733.04	311.367
2726.57	372.931
2720.1	463.348
2713.62	522.745
2707.14	711.167
2700.65	887.709
2694.16	829.223
2687.66	718.935
2681.15	558.901
2674.64	408.739
2668.12	379.625
2661.6	256.696
2655.07	243.075
2648.53	149.161
2641.99	200.62
2635.45	181.355
2628.9	165.939
2622.34	200.098
2615.78	171.363
2609.21	209.262
2602.63	212.882
2596.06	146.229
2589.47	129.025
2582.88	176.307
2576.28	185.625
2569.68	181.678
2563.07	209.883
2556.46	179.473
2549.84	130.24
2543.21	162.187
2536.58	154.509
2529.94	133.665
2523.3	195.621
2516.65	221.761
2509.99	167.114
2503.33	185.729
2496.67	174.32
2489.99	164.804
2483.32	145.948
2476.63	173.863
2469.94	181.183
2463.25	164.228
2456.55	156.626
2449.84	113.641
2443.12	132.154
2436.41	159.934
2429.68	157.936
2422.95	135.52
2416.21	163.223
2409.47	166.787
2402.72	194.414
2395.97	155.394
2389.21	153.41
2382.44	190.208
2375.67	153.14
2368.89	169.596
2362.1	156.555
2355.31	167.458
2348.52	165.472
2341.72	148.794
2334.91	170.687
2328.09	139.363
2321.27	141.072
2314.45	170.236
2307.61	133.508
2300.77	137.045
2293.93	188.042
2287.08	151.395
2280.22	167.664
2273.36	171.157
2266.49	129.164
2259.62	114.509
2252.74	148.912
2245.85	194.14
2238.96	170.402
2232.06	139.461
2225.15	141.147
2218.24	139.214
2211.32	121.027
2204.4	131.748
2197.47	155.072
2190.53	174.752
2183.59	142.198
2176.64	183.434
2169.69	122.181
2162.73	157.976
2155.76	134.519
2148.79	141.567
2141.81	146.812
2134.82	157.415
2127.83	146.551
2120.83	148.206
2113.83	112.394
2106.82	137.248
2099.8	140.687
2092.78	174.368
2085.75	95.9946
2078.72	143.863
2071.67	134.863
2064.63	152.471
2057.57	180.677
2050.51	115.034
2043.44	155.599
2036.37	146.627
2029.29	165.911
2022.21	137.548
2015.11	123.33
2008.02	139.062
2000.91	140.696
1993.8	149.356
1986.68	168.533
1979.56	138.564
1972.43	150.707
1965.29	117.306
1958.15	122.448
1951	146.806
1943.84	162.389
1936.68	150.032
1929.51	141.182
1922.33	118.417
1915.15	135.709
1907.96	172.09
1900.77	147.621
1893.57	105.845
1886.36	105.749
1879.14	129.903
1871.92	150.551
1864.7	107.193
1857.46	95.0044
1850.22	143.241
1842.98	134.49
1835.72	113.697
1828.46	117.036
1821.19	79.1002
1813.92	108.235
1806.64	94.4053
1799.36	109.754
1792.06	149.062
1784.76	138.656
1777.46	140.241
1770.14	116.192
1762.82	131.451
1755.5	119.393
1748.17	115.876
1740.83	110.664
1733.48	144.583
1726.13	107.064
1718.77	134.133
1711.4	91.6024
1704.03	108.467
1696.65	106.675
1689.26	115.037
1681.87	106.481
1674.47	138.469
1667.06	128.22
1659.65	144.959
1652.23	144.827
1644.8	149.742
1637.37	136.158
1629.93	137.713
1622.48	169.467
1615.03	194.458
1607.57	184.232
1600.1	264.382
1592.63	361.103
1585.15	287.282
1577.66	191.902
1570.16	210.066
1562.66	186.554
1555.15	166.414
1547.64	142.985
1540.11	141.193
1532.59	116.17
1525.05	124.354
1517.51	163.996
1509.96	137.365
1502.4	127.318
1494.83	171.805
1487.26	150.191
1479.69	122.021
1472.1	103.787
1464.51	111.921
1456.91	147.995
1449.3	106.787
1441.69	139.516
1434.07	154.146
1426.45	142.536
1418.81	134.22
1411.17	135.732
1403.52	117.634
1395.87	137.114
1388.21	119.048
1380.54	107.533
1372.86	102.551
1365.18	133.355
1357.49	95.8619
1349.79	124.992
1342.08	115.146
1334.37	119.9
1326.65	108.458
1318.93	93.8018
1311.19	129.262
1303.45	111.385
1295.7	96.7668
1287.95	120.846
1280.19	125.563
1272.42	135.097
1264.64	106.049
1256.86	91.5025
1249.07	139.532
1241.27	116.97
1233.46	57.63
1225.65	126.348
1217.83	135.818
1210	110.149
1202.17	133.97
1194.33	127.471
1186.48	71.6359
1178.62	71.5691
1170.76	69.9133
1162.88	117.472
1155.01	117.362
1147.12	107.746
1139.23	98.1468
1131.33	109.126
1123.42	74.2625
1115.5	126.286
1107.58	83.5862
1099.65	102.415
1091.71	89.7263
1083.77	121.096
1075.81	89.5582
1067.85	89.4743
1059.89	106.641
1051.91	133.176
1043.93	98.6145
1035.94	111.033
1027.94	104.679
1019.93	132.677
1011.92	99.8038
1003.9	96.594
999.086	144.809