File: Akinwande-lab-measurements/raman/data/Raman 25-10-21 Gr-through-finished-wafer/Gr-baseline-channel-1.txt
2999.69	178.405
2993.45	206.327
2987.2	210.155
2980.96	219.974
2974.7	221.785
2968.44	227.585
2962.18	229.385
2955.91	167.408
2949.63	246.915
2943.35	181.049
2937.07	178.907
2930.77	158.892
2924.48	218.29
2918.18	228.018
2911.87	168.391
2905.56	211.793
2899.24	235.344
2892.91	233.166
2886.58	225.069
2880.25	207.123
2873.91	206.946
2867.56	191.015
2861.21	161.338
2854.86	218.209
2848.49	188.559
2842.13	233.535
2835.75	188.236
2829.38	205.706
2822.99	180.083
2816.6	201.441
2810.21	211.038
2803.81	193.286
2797.4	218.478
2790.99	222.188
2784.57	196.682
2778.15	223.752
2771.72	248.831
2765.29	213.655
2758.85	230.936
2752.41	257.883
2745.96	209.228
2739.5	303.893
2733.04	301.697
2726.57	392.254
2720.1	442.111
2713.62	669.345
2707.14	822.95
2700.65	953.18
2694.16	888.865
2687.66	711.246
2681.15	593.473
2674.64	412.577
2668.12	371.956
2661.6	243.286
2655.07	233.505
2648.53	218.004
2641.99	215.905
2635.45	221.445
2628.9	205.994
2622.34	196.286
2615.78	182.788
2609.21	211.165
2602.63	218.584
2596.06	161.422
2589.47	170.769
2582.88	195.265
2576.28	174.26
2569.68	151.399
2563.07	139.922
2556.46	162.47
2549.84	186.867
2543.21	167.845
2536.58	194.078
2529.94	169.435
2523.3	203.145
2516.65	240.554
2509.99	176.502
2503.33	178.224
2496.67	163.073
2489.99	149.822
2483.32	205.825
2476.63	190.689
2469.94	173.711
2463.25	220.215
2456.55	193.918
2449.84	186.296
2443.12	134.016
2436.41	156.215
2429.68	185.807
2422.95	181.931
2416.21	174.352
2409.47	166.787
2402.72	151.828
2395.97	146.145
2389.21	179.286
2382.44	145.888
2375.67	123.619
2368.89	175.127
2362.1	125.244
2355.31	141.695
2348.52	143.409
2341.72	209.413
2334.91	216.57
2328.09	115.525
2321.27	144.737
2314.45	177.558
2307.61	142.653
2300.77	193.69
2293.93	153.355
2287.08	184.228
2280.22	171.308
2273.36	169.336
2266.49	161.91
2259.62	154.496
2252.74	188.864
2245.85	161.481
2238.96	157.712
2232.06	184.74
2225.15	153.814
2218.24	159.102
2211.32	198.701
2204.4	137.162
2197.47	156.876
2190.53	158.538
2183.59	136.798
2176.64	142.071
2169.69	132.961
2162.73	163.361
2155.76	168.597
2148.79	150.527
2141.81	134.28
2134.82	141.315
2127.83	166.211
2120.83	174.991
2113.83	137.37
2106.82	171.114
2099.8	149.592
2092.78	131.666
2085.75	145.77
2078.72	158.072
2071.67	134.863
2064.63	170.201
2057.57	173.591
2050.51	146.89
2043.44	173.281
2036.37	151.927
2029.29	153.556
2022.21	148.129
2015.11	126.854
2008.02	146.103
2000.91	130.144
1993.8	179.227
1986.68	128.155
1979.56	114.009
1972.43	150.707
1965.29	171.582
1958.15	122.448
1951	148.554
1943.84	137.944
1936.68	174.455
1929.51	92.3783
1922.33	139.314
1915.15	154.847
1907.96	151.231
1900.77	144.148
1893.57	133.607
1886.36	130.02
1879.14	171.471
1871.92	154.012
1864.7	129.668
1857.46	150.28
1850.22	117.354
1842.98	153.457
1835.72	127.478
1828.46	139.411
1821.19	134.126
1813.92	128.851
1806.64	127.018
1799.36	102.894
1792.06	145.635
1784.76	148.927
1777.46	107.746
1770.14	104.231
1762.82	122.915
1755.5	104.042
1748.17	178.927
1740.83	148.119
1733.48	125.872
1726.13	115.561
1718.77	149.414
1711.4	130.618
1704.03	140.668
1696.65	174.406
1689.26	111.653
1681.87	167.328
1674.47	153.666
1667.06	160.275
1659.65	141.588
1652.23	143.143
1644.8	129.552
1637.37	176.501
1629.93	159.546
1622.48	134.232
1615.03	157.578
1607.57	184.232
1600.1	319.601
1592.63	406.241
1585.15	252.207
1577.66	228.614
1570.16	221.736
1562.66	173.229
1555.15	203.025
1547.64	146.31
1540.11	172.753
1532.59	162.638
1525.05	154.198
1517.51	159.026
1509.96	140.675
1502.4	150.467
1494.83	150.329
1487.26	161.744
1479.69	136.861
1472.1	130.146
1464.51	130.026
1456.91	108.53
1449.3	3750.68
1441.69	134.592
1434.07	90.1918
1426.45	131.067
1418.81	140.767
1411.17	184.791
1403.52	142.142
1395.87	128.952
1388.21	99.4786
1380.54	94.4989
1372.86	148.129
1365.18	134.981
1357.49	155.979
1349.79	116.876
1342.08	136.229
1334.37	106.938
1326.65	139.214
1318.93	103.505
1311.19	134.109
1303.45	132.371
1295.7	129.022
1287.95	130.514
1280.19	120.734
1272.42	127.055
1264.64	101.228
1256.86	109.161
1249.07	129.909
1241.27	86.5255
1233.46	80.0417
1225.65	113.553
1217.83	147.003
1210	111.746
1202.17	121.211
1194.33	86.0433
1186.48	122.577
1178.62	128.824
1170.76	88.9806
1162.88	87.3101
1155.01	111.018
1147.12	118.837
1139.23	68.0695
1131.33	118.615
1123.42	74.2625
1115.5	94.7145
1107.58	129.322
1099.65	103.991
1091.71	113.339
1083.77	91.2149
1075.81	83.2735
1067.85	89.4743
1059.89	114.482
1051.91	84.6061
1043.93	86.092
1035.94	92.2665
1027.94	79.6809
1019.93	117.068
1011.92	134.111
1003.9	135.543
999.086	129.238