File: Akinwande-lab-measurements/raman/data/Raman 25-10-21 Gr-through-finished-wafer/Gr-finished-channel-outer-2.txt
2999.69	150.341
2993.45	210.334
2987.2	170.125
2980.96	175.98
2974.7	209.797
2968.44	223.592
2962.18	211.434
2955.91	251.112
2949.63	230.985
2943.35	206.914
2937.07	240.53
2930.77	234.366
2924.48	226.228
2918.18	180.431
2911.87	188.201
2905.56	223.669
2899.24	189.857
2892.91	245.022
2886.58	209.275
2880.25	179.507
2873.91	197.091
2867.56	165.415
2861.21	177.078
2854.86	178.892
2848.49	172.846
2842.13	192.323
2835.75	176.471
2829.38	252.725
2822.99	213.359
2816.6	238.6
2810.21	187.59
2803.81	191.333
2797.4	161.908
2790.99	231.934
2784.57	184.998
2778.15	210.132
2771.72	174.959
2765.29	172.866
2758.85	205.708
2752.41	244.31
2745.96	201.479
2739.5	191.627
2733.04	259.15
2726.57	220.281
2720.1	279.939
2713.62	352.998
2707.14	497.239
2700.65	566.131
2694.16	708.014
2687.66	715.091
2681.15	606.917
2674.64	497.011
2668.12	394.964
2661.6	312.249
2655.07	239.247
2648.53	196.969
2641.99	244.565
2635.45	179.446
2628.9	253.677
2622.34	190.569
2615.78	196.116
2609.21	233.993
2602.63	201.478
2596.06	216.495
2589.47	195.435
2582.88	218.015
2576.28	238.66
2569.68	204.388
2563.07	158.83
2556.46	162.47
2549.84	167.991
2543.21	147.1
2536.58	186.541
2529.94	188.261
2523.3	191.859
2516.65	161.622
2509.99	182.136
2503.33	172.596
2496.67	163.073
2489.99	196.641
2483.32	160.917
2476.63	168.255
2469.94	183.05
2463.25	186.623
2456.55	210.699
2449.84	240.322
2443.12	180.549
2436.41	195.268
2429.68	195.097
2422.95	170.792
2416.21	131.692
2409.47	155.667
2402.72	175.898
2395.97	205.343
2389.21	181.134
2382.44	169.895
2375.67	158.675
2368.89	149.319
2362.1	143.662
2355.31	187.7
2348.52	150.763
2341.72	172.674
2334.91	185.369
2328.09	172.37
2321.27	128.248
2314.45	148.27
2307.61	153.626
2300.77	131.563
2293.93	189.868
2287.08	142.275
2280.22	147.617
2273.36	142.024
2266.49	154.633
2259.62	165.402
2252.74	177.968
2245.85	175.996
2238.96	166.776
2232.06	168.44
2225.15	168.291
2218.24	227.805
2211.32	173.412
2204.4	182.282
2197.47	173.104
2190.53	158.538
2183.59	116.998
2176.64	149.265
2169.69	147.336
2162.73	116.687
2155.76	143.487
2148.79	161.279
2141.81	164.716
2134.82	125.216
2127.83	176.934
2120.83	130.35
2113.83	165.915
2106.82	165.767
2099.8	167.4
2092.78	165.472
2085.75	113.771
2078.72	158.072
2071.67	165.029
2064.63	156.017
2057.57	143.479
2050.51	129.192
2043.44	118.468
2036.37	155.46
2029.29	141.201
2022.21	142.838
2015.11	176.186
2008.02	142.583
2000.91	145.972
1993.8	131.785
1986.68	136.933
1979.56	154.35
1972.43	140.193
1965.29	127.811
1958.15	157.434
1951	101.366
1943.84	143.182
1936.68	153.521
1929.51	144.668
1922.33	135.831
1915.15	130.489
1907.96	175.567
1900.77	144.148
1893.57	116.256
1886.36	142.155
1879.14	143.759
1871.92	141.899
1864.7	150.415
1857.46	126.097
1850.22	165.676
1842.98	162.078
1835.72	161.932
1828.46	113.594
1821.19	113.492
1813.92	120.261
1806.64	154.481
1799.36	149.197
1792.06	137.068
1784.76	114.691
1777.46	148.792
1770.14	126.444
1762.82	131.451
1755.5	127.921
1748.17	138.029
1740.83	132.796
1733.48	61.235
1726.13	67.9771
1718.77	122.248
1711.4	152.671
1704.03	133.889
1696.65	59.264
1689.26	155.638
1681.87	123.383
1674.47	99.6298
1667.06	114.723
1659.65	101.134
1652.23	107.778
1644.8	105.997
1637.37	99.1767
1629.93	129.316
1622.48	134.232
1615.03	164.284
1607.57	172.508
1600.1	192.43
1592.63	346.057
1585.15	275.59
1577.66	236.958
1570.16	200.063
1562.66	138.25
1555.15	113.161
1547.64	139.66
1540.11	111.293
1532.59	146.042
1525.05	86.2184
1517.51	157.37
1509.96	100.955
1502.4	115.744
1494.83	112.334
1487.26	118.832
1479.69	135.213
1472.1	128.499
1464.51	113.567
1456.91	115.107
1449.3	119.93
1441.69	108.33
1434.07	114.79
1426.45	104.854
1418.81	121.125
1411.17	99.7545
1403.52	151.944
1395.87	83.2475
1388.21	128.833
1380.54	127.085
1372.86	104.178
1365.18	105.708
1357.49	73.115
1349.79	139.602
1342.08	123.255
1334.37	137.723
1326.65	110.076
1318.93	105.123
1311.19	148.651
1303.45	88.7852
1295.7	125.797
1287.95	74.119
1280.19	120.734
1272.42	102.931
1264.64	96.408
1256.86	72.2388
1249.07	107.456
1241.27	105.753
1233.46	91.2475
1225.65	105.557
1217.83	78.2949
1210	79.8183
1202.17	121.211
1194.33	111.538
1186.48	113.025
1178.62	109.739
1170.76	115.993
1162.88	125.409
1155.01	103.088
1147.12	82.3936
1139.23	88.6487
1131.33	115.452
1123.42	94.8032
1115.5	94.7145
1107.58	119.859
1099.65	91.3861
1091.71	77.1332
1083.77	66.0522
1075.81	75.4175
1067.85	125.578
1059.89	87.8221
1051.91	103.407
1043.93	78.2655
1035.94	82.8835
1027.94	98.4293
1019.93	118.629
1011.92	95.1255
1003.9	99.7099
999.086	113.667